#Arquivo Dados/Coleta99.txt 
#Parâmetros(Ocupação: 99.00%, Capacidade: 356363.636 bps)
#Coleta|Ocupação|E(n)|E(w)|lambda|Little

100 97.99967 39.21696 0.39545 99.17000 0.00000000002446398639
200 96.73074 29.34236 0.29767 98.57500 0.00000000006210498782
300 97.26320 29.76483 0.30091 98.91667 0.00000000007549516567
400 97.94585 62.42683 0.62837 99.34750 0.00000000015376855345
500 98.35791 96.24911 0.96828 99.40200 0.00000000008991207778
600 98.63120 101.20251 1.01527 99.68000 0.00000000002123101694
700 98.82772 103.31650 1.03601 99.72571 0.00000000004165201517
800 98.97292 103.54557 1.03718 99.83375 0.00000000011709744285
900 99.08827 105.90397 1.06186 99.73444 -0.00000000010332712463
1000 99.17849 111.29337 1.11502 99.81300 0.00000000023801760562
1100 99.18116 107.88640 1.08153 99.75364 0.00000000046556181132
1200 99.15604 108.87245 1.08902 99.97250 0.00000000093068308615
1300 99.10534 108.96000 1.08983 99.97846 0.00000000103780450900
1400 99.00871 103.14883 1.03169 99.98000 0.00000000078880191268
1500 98.94732 99.13403 0.99217 99.91600 0.00000000056238036450
1600 98.97765 97.00544 0.96970 100.03625 0.00000000005161382433
1700 99.01116 95.46716 0.95462 100.00588 0.00000000066401639742
1800 99.03920 95.19909 0.95139 100.06333 0.00000000077736217463
1900 99.08877 97.45243 0.97363 100.09158 0.00000000020023094294
2000 99.13485 101.94569 1.01868 100.07650 -0.00000000008037659427
2100 99.10145 99.08788 0.99083 100.00476 -0.00000000048513015827
2200 99.11886 96.54439 0.96500 100.04636 -0.00000000045565684559
2300 99.15063 96.27478 0.96174 100.10435 -0.00000000045385206704
2400 99.13111 95.13222 0.94993 100.14625 -0.00000000188720150618
2500 99.16510 100.37572 1.00200 100.17520 0.00000000052172310916
2600 99.19731 102.71511 1.02544 100.16692 -0.00000000008195399914
2700 99.22718 104.66597 1.04473 100.18519 0.00000000115262821510
2800 99.22605 103.29999 1.03104 100.19000 0.00000000033914204778
2900 99.25298 102.55904 1.02311 100.24276 -0.00000000034341951505
3000 99.26788 101.87896 1.01623 100.25200 0.00000000060710192429
3100 99.25215 99.79272 0.99567 100.22677 0.00000000116027365493
3200 99.23266 98.09049 0.97898 100.19656 0.00000000120471099763
3300 99.15298 95.95555 0.95790 100.17303 0.00000000196888549908
3400 99.15685 94.42940 0.94262 100.17735 0.00000000439632685811
3500 99.14209 93.21905 0.92999 100.23657 0.00000000491282037274
3600 99.15586 93.38645 0.93169 100.23333 0.00000000522800291947
3700 99.17169 92.33322 0.92091 100.26297 0.00000000791371235209
3800 99.18107 92.84721 0.92548 100.32289 0.00000000889933460257
3900 99.20224 95.19368 0.94935 100.27256 0.00000000893908236321
4000 99.18870 93.93504 0.93680 100.27275 0.00000000886667805844
4100 99.19583 93.47559 0.93232 100.26146 0.00000000705678360191
4200 99.16250 92.15626 0.91915 100.26286 0.00000000677908928992
4300 99.10925 90.88380 0.90661 100.24558 0.00000000643051123461
4400 99.06228 89.42122 0.89227 100.21818 0.00000000607178662904
4500 99.08244 89.28803 0.89080 100.23356 0.00000000563444757518
4600 99.07746 88.14332 0.87940 100.23152 0.00000000452261872397
4700 99.04680 87.01155 0.86818 100.22298 0.00000000311494829930
4800 99.06664 88.08175 0.87877 100.23271 0.00000000439221992110
4900 99.08583 88.44997 0.88230 100.24898 0.00000000293063351364
5000 99.10405 91.97052 0.91737 100.25460 -0.00000000000395061761
5100 99.12213 93.64407 0.93426 100.23392 0.00000000116156684271
5200 99.13634 93.44191 0.93214 100.24500 0.00000000378854281280
5300 99.15020 93.70069 0.93470 100.24717 0.00000000362101104656
5400 99.16054 93.93587 0.93702 100.24907 0.00000000324132543028
5500 99.14819 92.90990 0.92699 100.22764 0.00000000426769020123
5600 99.14486 91.91826 0.91732 100.20321 0.00000000399447230848
5700 99.16016 92.61481 0.92409 100.22298 0.00000000498093299939
5800 99.17439 94.58545 0.94346 100.25379 0.00000000592180526837
5900 99.18820 98.46243 0.98210 100.25712 0.00000000595854032781
6000 99.20214 102.68879 1.02436 100.24650 0.00000000320441984059
6100 99.21483 103.87474 1.03608 100.25787 0.00000000355558427145
6200 99.22750 104.70714 1.04418 100.27645 0.00000000504076069774
6300 99.23982 108.70281 1.08399 100.28032 0.00000000673985312005
6400 99.25208 113.93340 1.13592 100.30062 0.00000001011119366012
6500 99.26342 116.96876 1.16637 100.28446 0.00000001307155628183
6600 99.27436 118.77151 1.18445 100.27591 0.00000001861270959580
6700 99.27110 117.87011 1.17571 100.25418 0.00000001525825155113
6800 99.27046 116.77680 1.16473 100.26074 0.00000000751970219426
6900 99.25763 115.71425 1.15438 100.23913 0.00000000422909351983
7000 99.26837 115.96903 1.15663 100.26457 0.00000000145888634506
7100 99.27866 116.28725 1.15979 100.26563 0.00000000200277838758
7200 99.27291 115.36069 1.15076 100.24750 0.00000000122876997466
7300 99.24278 114.01591 1.13751 100.23274 0.00000000088654417141
7400 99.23320 112.85483 1.12594 100.23135 0.00000000102237152078
7500 99.22157 111.87864 1.11632 100.22120 0.00000000364322261248
7600 99.20551 111.01608 1.10781 100.21250 0.00000000360128638022
7700 99.19083 110.00756 1.09785 100.20312 0.00000000366694052900
7800 99.17692 109.02607 1.08821 100.18872 0.00000000635965591300
7900 99.18551 108.85677 1.08632 100.20709 0.00000000687234091856
8000 99.18926 108.36383 1.08139 100.20775 0.00000000443826309038
8100 99.19938 109.08358 1.08840 100.22407 0.00000000514137354912
8200 99.20900 110.34752 1.10110 100.21585 0.00000000299701241602
8300 99.21434 110.02738 1.09815 100.19337 -0.00000000016547119230
8400 99.20681 109.19447 1.08975 100.20167 -0.00000000064474647843
8500 99.21612 108.85687 1.08638 100.20118 0.00000000041424641495
8600 99.19172 107.90394 1.07711 100.17895 0.00000000244480702349
8700 99.17096 107.24701 1.07051 100.18276 0.00000000120152776617
8800 99.16475 106.40801 1.06234 100.16420 -0.00000000030136959595
8900 99.15951 105.87379 1.05680 100.18326 -0.00000000058471982811
9000 99.16563 105.76180 1.05565 100.18644 0.00000000050208370794
9100 99.13151 104.82320 1.04652 100.16363 -0.00000000023264590254
9200 99.11305 103.99715 1.03831 100.16033 0.00000000012282441730
9300 99.12233 104.20169 1.04034 100.16118 -0.00000000146815182234
9400 99.11463 103.71960 1.03560 100.15457 0.00000000008529355000
9500 99.10810 103.36644 1.03213 100.14895 0.00000000107552011741
9600 99.11148 102.75959 1.02604 100.15135 0.00000000135177913307
9700 99.11432 102.21537 1.02074 100.13897 -0.00000000189378113191
9800 99.11175 101.57150 1.01440 100.12929 0.00000000659515819734
9900 99.11180 101.42025 1.01283 100.13545 0.00000000717584214271
10000 99.10308 100.86893 1.00737 100.13120 0.00000000759145279972
10100 99.10577 100.35911 1.00227 100.13208 0.00000000988066517493
10200 99.11462 100.60103 1.00467 100.13343 0.00000000380960329949
10300 99.10975 100.46539 1.00344 100.12126 0.00000000265433186541
10400 99.11559 100.64075 1.00510 100.13038 0.00000000712279302206
10500 99.12401 100.49975 1.00375 100.12410 0.00000000648020659355
10600 99.12203 100.03095 0.99908 100.12292 0.00000000212817496958
10700 99.11763 99.48567 0.99368 100.11822 0.00000000410825862218
10800 99.11873 99.43946 0.99318 100.12259 0.00000000293653101835
10900 99.12673 100.55039 1.00426 100.12339 -0.00000000099387875707
11000 99.13491 101.27500 1.01135 100.13864 0.00000000243164777203
11100 99.14246 101.74624 1.01601 100.14324 0.00000000086882323558
11200 99.14017 101.75054 1.01613 100.13571 0.00000000112440545763
11300 99.14449 101.66996 1.01530 100.13743 -0.00000000052142468121
11400 99.13540 101.12574 1.00992 100.13272 0.00000000547632339476
11500 99.14287 101.74335 1.01607 100.13417 0.00000000787979104189
11600 99.15032 102.29760 1.02167 100.12759 0.00000000401271904593
11700 99.15756 103.67904 1.03532 100.14188 0.00000000634047125914
11800 99.16466 104.51631 1.04385 100.12593 0.00000000746342720959
11900 99.16492 104.53799 1.04403 100.12899 0.00000001095480683944
12000 99.16369 104.19343 1.04061 100.12700 0.00000000886898021690
12100 99.17049 104.04026 1.03900 100.13455 0.00000001265563298603
12200 99.16164 103.37167 1.03230 100.13721 0.00000001639347146920
12300 99.15636 102.95647 1.02808 100.14415 0.00000001478483113715
12400 99.15628 102.61073 1.02458 100.14895 0.00000001597398124886
12500 99.15994 102.29982 1.02142 100.15488 0.00000001514754899290
12600 99.14222 101.64861 1.01488 100.15857 0.00000001382001357797
12700 99.14676 101.68254 1.01515 100.16488 0.00000001465517129873
12800 99.14723 101.38049 1.01212 100.16602 0.00000001357132362045
12900 99.14194 100.88233 1.00719 100.16202 0.00000001210656819239
13000 99.13382 100.33368 1.00185 100.14846 0.00000001595249443653
13100 99.12922 99.80518 0.99659 100.14626 0.00000001666030868819
13200 99.12051 99.27634 0.99140 100.13795 0.00000001815119787807
13300 99.11439 99.47663 0.99326 100.15195 0.00000001122130299791
13400 99.10786 99.23253 0.99091 100.14254 0.00000001662220938670
13500 99.09275 98.74926 0.98614 100.13711 0.00000002106277463554
13600 99.07497 98.29278 0.98171 100.12426 0.00000001741359767493
13700 99.08183 98.59458 0.98479 100.11693 0.00000001927007531322
13800 99.08340 98.28915 0.98170 100.12159 0.00000002306141766439
13900 99.07967 98.01693 0.97903 100.11640 0.00000002749395378032
14000 99.07145 97.54442 0.97437 100.11064 0.00000002005080546041
14100 99.07806 97.65908 0.97546 100.11603 0.00000002309899116426
14200 99.07945 97.47315 0.97357 100.11908 0.00000002100549068018
14300 99.07721 97.17330 0.97060 100.11650 0.00000002113789321356
14400 99.05795 96.62439 0.96522 100.10632 0.00000002011653066347
14500 99.04660 96.56917 0.96466 100.10690 0.00000001600996313300
14600 99.05312 97.50278 0.97397 100.10836 0.00000001904138002828
14700 99.05728 97.80414 0.97699 100.10714 0.00000002623312411743
14800 99.05041 97.46199 0.97355 100.11034 0.00000003622291444572
14900 99.05681 97.86017 0.97748 100.11450 0.00000004298750866383
15000 99.06166 97.62155 0.97515 100.10953 0.00000004906037531782
15100 99.04831 97.12597 0.97030 100.09887 0.00000005263765956443
15200 99.03449 96.60032 0.96513 100.09079 0.00000005602618102785
15300 99.03188 96.19519 0.96105 100.09346 0.00000005882803577606
15400 99.02853 95.88561 0.95803 100.08571 0.00000005057704299816
15500 99.02205 95.51898 0.95439 100.08400 0.00000004793204766429
15600 99.02825 95.99304 0.95908 100.08878 0.00000004550183518859
15700 99.03449 96.47039 0.96387 100.08675 0.00000004853532686866
15800 99.03351 96.25750 0.96179 100.08139 0.00000004933076525049
15900 99.02948 95.89842 0.95820 100.08182 0.00000005546370118736
16000 99.03247 95.70309 0.95621 100.08625 0.00000004760939020798
16100 99.03532 95.61213 0.95531 100.08472 0.00000004972945077952
16200 99.02777 95.22501 0.95151 100.07772 0.00000004472541093037
16300 99.02898 95.15136 0.95075 100.08006 0.00000004359026206657
16400 99.03171 94.90115 0.94825 100.08030 0.00000004195648273253
16500 99.02052 94.54064 0.94468 100.07655 0.00000005028323357692
16600 99.02107 94.31497 0.94245 100.07392 0.00000004911555606668
16700 99.02693 94.14250 0.94074 100.07281 0.00000005131998648267
16800 99.02375 93.76872 0.93700 100.07363 0.00000005012407200411
16900 99.02544 93.56833 0.93494 100.07959 0.00000005295494531765
17000 99.03106 94.49606 0.94419 100.08165 0.00000005257396651359
17100 99.03180 94.57515 0.94507 100.07175 0.00000005821932802519
17200 99.03414 94.42848 0.94355 100.07826 0.00000006860530277208
17300 99.03338 94.30883 0.94240 100.07312 0.00000006945474240183
17400 99.03337 94.10802 0.94041 100.07075 0.00000006328031076919
17500 99.03466 93.85597 0.93791 100.06954 0.00000006591736223527
17600 99.02817 93.55065 0.93487 100.06835 0.00000006884219772019
17700 99.02981 93.39930 0.93330 100.07373 0.00000006918205031070
17800 99.03528 94.29084 0.94218 100.07781 0.00000007029994719687
17900 99.04069 95.11272 0.95042 100.07458 0.00000007590089978748
18000 99.04604 95.45993 0.95379 100.08461 0.00000007924755607291
18100 99.05127 96.34262 0.96262 100.08420 0.00000008126345107939
18200 99.04536 96.00070 0.95919 100.08566 0.00000008548754237836
18300 99.03196 95.58549 0.95511 100.07770 0.00000008132406037475
18400 99.02677 95.29595 0.95229 100.06989 0.00000008557475439375
18500 99.01761 94.97793 0.94919 100.06184 0.00000008123016925765
18600 99.01426 94.67963 0.94620 100.06317 0.00000007956737135828
18700 99.01949 94.64191 0.94578 100.06722 0.00000008156834496731
18800 99.01274 94.35939 0.94300 100.06245 0.00000007725270734227
18900 99.01588 94.20220 0.94145 100.06127 0.00000007035336579975
19000 99.00416 93.87329 0.93828 100.04858 0.00000007884777630807
19100 99.00566 93.64485 0.93598 100.04969 0.00000009640307041536
19200 99.00979 93.51419 0.93462 100.05536 0.00000010017294016507
19300 99.01350 93.32541 0.93274 100.05528 0.00000010168778885600
19400 99.01402 93.20919 0.93163 100.04948 0.00000009973045678180
19500 99.01293 93.07070 0.93024 100.05051 0.00000010314123244370
19600 99.01526 93.23776 0.93194 100.04679 0.00000009727294525419
19700 99.01537 93.06080 0.93015 100.04954 0.00000009055251837253
19800 99.01485 92.94428 0.92900 100.04727 0.00000009082010876682
19900 99.00748 92.76103 0.92729 100.03422 0.00000008891565528302
20000 99.00470 92.50551 0.92480 100.02725 0.00000008838756571095
20100 99.00685 92.56104 0.92534 100.02935 0.00000008657349326313
20200 99.01031 92.35688 0.92327 100.03228 0.00000009180305937662
20300 99.01218 92.16081 0.92125 100.03852 0.00000010422451168779
20400 99.01702 93.19276 0.93151 100.04436 0.00000008965324127530
20500 99.02040 93.63362 0.93594 100.04239 0.00000008580899191202
20600 99.02038 93.33229 0.93300 100.03505 0.00000009175342086110
20700 99.02381 93.30744 0.93275 100.03488 0.00000010160542274207
20800 99.02399 93.02588 0.92993 100.03553 0.00000010429839392145
20900 99.02489 92.80556 0.92772 100.03608 0.00000010161073760173
21000 99.02634 92.66762 0.92632 100.03857 0.00000010342002099151
21100 99.02740 92.63071 0.92591 100.04256 0.00000010699672259307
21200 99.03196 93.12436 0.93082 100.04505 0.00000010661682381397
21300 99.03116 92.96356 0.92929 100.03746 0.00000011342302741468
21400 99.03266 92.68628 0.92651 100.03850 0.00000011114826747871
21500 99.03122 92.44983 0.92418 100.03479 0.00000010249677018237
21600 99.02926 92.17032 0.92137 100.03634 0.00000009489720298461
21700 99.02045 91.85775 0.91829 100.03143 0.00000009521987465178
21800 99.01193 91.53929 0.91517 100.02445 0.00000008465109146982
21900 99.00666 91.22127 0.91203 100.01963 0.00000007242479682645
22000 99.00255 90.93683 0.90926 100.01168 0.00000005564024263549
22100 99.00041 90.84755 0.90837 100.01149 0.00000005145527381956
22200 98.99758 90.58074 0.90569 100.01302 0.00000004407357323544
22300 98.99489 90.41801 0.90411 100.00807 0.00000004115659635318
22400 98.98434 90.16577 0.90161 100.00487 0.00000002845139590590
22500 98.98360 90.11551 0.90114 100.00222 0.00000003346212906763
22600 98.98811 90.37329 0.90372 100.00159 0.00000003829075012618
22700 98.99254 90.46632 0.90463 100.00361 0.00000003485382649160
22800 98.99319 90.27865 0.90278 100.00066 0.00000003864616360261
22900 98.99562 90.16429 0.90167 99.99721 0.00000003727177499968
23000 98.98458 89.84837 0.89858 99.98965 0.00000004357333693861
23100 98.98713 90.09187 0.90093 99.99853 0.00000003891588562510
23200 98.99002 90.07451 0.90075 99.99978 0.00000004046158608162
23300 98.99215 90.04942 0.90050 99.99974 0.00000003472148080164
23400 98.99471 89.99066 0.89993 99.99714 0.00000003304700157969
23500 98.99548 89.84956 0.89850 100.00004 0.00000003576994345167
23600 98.99664 89.68458 0.89689 99.99504 0.00000003668127135370
23700 98.99449 89.47740 0.89481 99.99624 0.00000004633872663362
23800 98.99721 89.74016 0.89736 100.00479 0.00000004346115645149
23900 99.00141 90.04900 0.90047 100.00176 0.00000004137048392749
24000 98.99779 89.76198 0.89763 99.99917 0.00000003928533942599
24100 98.99670 89.60162 0.89604 99.99718 0.00000004102554385099
24200 98.99263 89.32178 0.89330 99.99070 0.00000003758471223136
24300 98.98666 89.11143 0.89118 99.99235 0.00000003545571303221
24400 98.98314 88.88184 0.88890 99.99033 0.00000003756341016015
24500 98.98484 89.05678 0.89069 99.98633 0.00000003451866348314
24600 98.98898 89.44815 0.89455 99.99215 0.00000003340880994074
24700 98.99317 89.55683 0.89565 99.99069 0.00000003021837358119
24800 98.98561 89.30685 0.89320 99.98544 0.00000003169431295191
24900 98.98791 89.41780 0.89431 99.98522 0.00000003295414785498
25000 98.98808 89.33605 0.89345 99.99024 0.00000003629386924331
25100 98.99210 89.70099 0.89711 99.98857 0.00000003769345369165
25200 98.99239 89.55941 0.89573 99.98504 0.00000004066247072387
25300 98.98354 89.30614 0.89323 99.98166 0.00000004373556805604
25400 98.98384 89.15119 0.89164 99.98618 0.00000004803304420875
25500 98.98388 89.21785 0.89228 99.98808 0.00000004051389623783
25600 98.98781 89.41551 0.89426 99.98859 0.00000002812990373968
25700 98.98756 89.34789 0.89360 99.98619 0.00000002015045197368
25800 98.98897 89.23959 0.89243 99.99589 0.00000002477143823398
25900 98.98578 89.07355 0.89073 100.00023 0.00000002080140859562
26000 98.97532 88.81276 0.88821 99.99019 0.00000002798545040150
26100 98.97411 88.71309 0.88722 99.98943 0.00000001905803515001
26200 98.96530 88.48606 0.88503 99.98053 0.00000001748460931594
26300 98.96492 88.34780 0.88366 99.97890 0.00000001556944084768
26400 98.96735 88.30774 0.88328 99.97754 0.00000003179989960245
26500 98.95453 88.05469 0.88082 99.96898 0.00000003194134023943
26600 98.95705 88.04954 0.88070 99.97688 0.00000004670263820117
26700 98.96099 88.62229 0.88639 99.98097 0.00000004450436108527
26800 98.96482 89.13707 0.89152 99.98362 0.00000005208572417814
26900 98.96326 88.93347 0.88948 99.98390 0.00000005378325340644
27000 98.95223 88.67383 0.88695 99.97630 0.00000005529210511668
27100 98.95315 88.52784 0.88550 99.97494 0.00000005002044645153
27200 98.95436 88.53710 0.88561 99.97316 0.00000003406212556456
27300 98.94759 88.31464 0.88340 99.97150 0.00000002193489478941
27400 98.94945 88.30879 0.88335 99.97084 0.00000002291447742664
27500 98.95121 88.24326 0.88268 99.97215 0.00000001788248482626
27600 98.95281 88.13949 0.88165 99.97105 0.00000003293374106761
27700 98.95663 88.46346 0.88487 99.97361 0.00000003009452598235
27800 98.95486 88.30325 0.88328 99.97165 0.00000003382811541996
27900 98.94524 88.05639 0.88086 99.96620 0.00000003373182266841
28000 98.94566 88.05098 0.88077 99.97057 0.00000001812254879496
28100 98.94942 88.06491 0.88086 99.97619 0.00000002054900960502
28200 98.95038 88.03061 0.88055 99.97252 0.00000002229666051790
28300 98.95015 88.04070 0.88066 99.97180 0.00000001635207524942
28400 98.95009 87.86401 0.87885 99.97634 0.00000000825311019526
28500 98.95377 88.27582 0.88295 99.97818 0.00000000667401423016
28600 98.95743 88.97164 0.88990 99.97941 0.00000000227238672323
28700 98.96108 89.27124 0.89289 99.98014 0.00000000044468606575
28800 98.96344 89.37262 0.89393 99.97764 0.00000001501979340901
28900 98.95849 89.20182 0.89220 99.97945 0.00000001774566271706
29000 98.95686 88.97797 0.89001 99.97369 0.00000000385908549561
29100 98.95838 88.91818 0.88942 99.97330 0.00000000374330966224
29200 98.95741 88.78210 0.88808 99.97079 0.00000000181289294687
29300 98.95538 88.56757 0.88592 99.97218 -0.00000001110559821882
29400 98.95892 88.81049 0.88830 99.97796 -0.00000002136661692020
29500 98.96023 88.73852 0.88761 99.97495 -0.00000002016972189267
29600 98.96137 88.75469 0.88778 99.97422 0.00000000032392222238
29700 98.96486 88.75667 0.88778 99.97562 -0.00000000000449063009
29800 98.96673 88.62732 0.88647 99.97762 -0.00000000863585114530
29900 98.96683 88.44549 0.88466 99.97692 0.00000000029912428090
30000 98.96768 88.38751 0.88410 99.97477 0.00000001000364591164
30100 98.96700 88.26430 0.88288 99.97289 0.00000001440520236429
30200 98.96557 88.16589 0.88190 99.97242 0.00000001871454458069
30300 98.96863 88.03933 0.88067 99.96815 0.00000003015564686848
30400 98.96283 87.82448 0.87854 99.96592 0.00000005184141116388
30500 98.96434 87.89840 0.87928 99.96662 0.00000005289608395742
30600 98.96576 87.86048 0.87890 99.96624 0.00000006191184809268
30700 98.96517 87.80116 0.87833 99.96358 0.00000005515086343166
30800 98.96224 87.68016 0.87710 99.96614 0.00000004758965133078
30900 98.96238 87.57982 0.87608 99.96828 0.00000005065068364729
31000 98.96573 88.04596 0.88068 99.97477 0.00000006601700874853
31100 98.96909 88.63907 0.88662 99.97376 0.00000007334000429182
31200 98.97235 89.13420 0.89156 99.97532 0.00000007534228529948
31300 98.97407 89.16998 0.89191 99.97674 0.00000007336318219586
31400 98.97736 89.24515 0.89266 99.97688 0.00000008075733148871
31500 98.97559 89.24030 0.89264 99.97330 0.00000007851637917611
31600 98.97320 89.07930 0.89102 99.97430 0.00000007667222234886
31700 98.96738 88.87993 0.88903 99.97394 0.00000008025037345760
31800 98.96084 88.69256 0.88718 99.97097 0.00000008222826863857
31900 98.95656 88.52199 0.88551 99.96674 0.00000008927197825415
32000 98.95953 88.53450 0.88564 99.96628 0.00000008874486923105
32100 98.95157 88.33872 0.88372 99.96283 0.00000008334676238064
32200 98.94723 88.12695 0.88165 99.95711 0.00000008673370643919
32300 98.94482 87.96687 0.88008 99.95272 0.00000008256682804131
32400 98.93820 87.82466 0.87867 99.95167 0.00000009548820401051
32500 98.94144 87.95136 0.87995 99.95074 0.00000009917326337927
32600 98.94149 87.81192 0.87857 99.94831 0.00000010962588703478
32700 98.93982 87.68578 0.87729 99.95128 0.00000009830007741130
32800 98.94305 87.61135 0.87653 99.95232 0.00000010001305383867
32900 98.94266 87.50376 0.87540 99.95815 0.00000011153866807945
33000 98.94588 87.38932 0.87425 99.95912 0.00000011272398126039
33100 98.94542 87.35052 0.87388 99.95701 0.00000010438124320444
33200 98.94277 87.21330 0.87253 99.95491 0.00000009956619351215
33300 98.94357 87.18923 0.87227 99.95658 0.00000009228826058916
33400 98.94322 87.10735 0.87144 99.95790 0.00000011798628918314
33500 98.94457 87.01123 0.87049 99.95648 0.00000011222731188809
33600 98.94779 87.32778 0.87363 99.96009 0.00000012011641103982
33700 98.95083 87.39167 0.87428 99.95828 0.00000011113131392904
33800 98.95085 87.29870 0.87332 99.96163 0.00000010393908667083
33900 98.95394 87.64404 0.87677 99.96224 0.00000009633092190597
34000 98.95700 88.08305 0.88115 99.96382 0.00000009790851152047
34100 98.96003 88.04496 0.88076 99.96434 0.00000010464098920693
34200 98.96255 88.01345 0.88044 99.96550 0.00000010499553582122
34300 98.96244 87.90111 0.87930 99.96755 0.00000010567090669156
34400 98.95933 87.73907 0.87767 99.96805 0.00000010563239527528
34500 98.95996 87.61843 0.87644 99.97096 0.00000009489799879248
34600 98.95422 87.45236 0.87480 99.96867 0.00000009368619657835
34700 98.95723 87.54310 0.87571 99.96841 0.00000009387348143264
34800 98.96024 87.79215 0.87818 99.97009 0.00000008545194418730
34900 98.96292 87.83933 0.87867 99.96828 0.00000008347512903129
35000 98.96550 87.92135 0.87949 99.96849 0.00000009430385716769
35100 98.96845 88.04838 0.88075 99.96929 0.00000010215241275091
35200 98.97138 88.19215 0.88217 99.97230 0.00000009636437425797
35300 98.97436 88.38481 0.88408 99.97363 0.00000010720319210122
35400 98.97720 88.89396 0.88911 99.98130 0.00000010399115524251
35500 98.98007 89.32456 0.89341 99.98172 0.00000010314165876935
35600 98.98296 89.71765 0.89733 99.98334 0.00000009750681329024
35700 98.98584 90.17601 0.90186 99.98838 0.00000009717093973904
35800 98.98862 90.47364 0.90486 99.98589 0.00000009248195453893
35900 98.98824 90.45478 0.90469 99.98387 0.00000009084311614060
36000 98.99050 90.55956 0.90572 99.98650 0.00000009416990565114
36100 98.99331 90.66947 0.90680 99.98878 0.00000008287129560358
36200 98.99535 90.59505 0.90607 99.98727 0.00000009703944670036
36300 98.99064 90.41983 0.90430 99.98832 0.00000008830620856770
36400 98.99289 90.33014 0.90343 99.98577 0.00000007771986076932
36500 98.99317 90.19213 0.90205 99.98556 0.00000007238364219120
36600 98.99053 90.04425 0.90059 99.98366 0.00000007337065710544
36700 98.99326 90.07407 0.90085 99.98809 0.00000008402372486671
36800 98.98976 89.95274 0.89964 99.98802 0.00000006482497383331
36900 98.99251 90.11026 0.90118 99.99119 0.00000007105505517302
37000 98.99521 90.15820 0.90166 99.99114 0.00000006478775560481
37100 98.99497 90.03382 0.90042 99.99084 0.00000004465010761123
37200 98.99001 89.92452 0.89934 99.98919 0.00000001785440417734
37300 98.98718 89.76994 0.89780 99.98933 0.00000001054205256423
37400 98.98934 89.74786 0.89753 99.99479 0.00000003088048572408
37500 98.99199 90.16701 0.90168 99.99899 0.00000000321981019624
37600 98.99471 90.39828 0.90399 99.99902 -0.00000000034087577205
37700 98.99497 90.27371 0.90276 99.99700 0.00000001359333623441
37800 98.98759 90.08281 0.90089 99.99341 0.00000002786875086258
37900 98.98795 90.02501 0.90032 99.99208 0.00000003316502272810
38000 98.99003 89.98230 0.89987 99.99439 0.00000002836416967966
38100 98.98766 89.81513 0.89822 99.99215 0.00000004398833652886
38200 98.98910 89.75415 0.89761 99.99228 0.00000005934761304616
38300 98.99065 89.61493 0.89621 99.99329 0.00000006081356218601
38400 98.98762 89.45497 0.89461 99.99281 0.00000005029664862377
38500 98.98733 89.31897 0.89324 99.99395 0.00000005567567029630
38600 98.98592 89.18401 0.89190 99.99277 0.00000005993295815188
38700 98.98855 89.35014 0.89352 99.99762 0.00000006262884255648
38800 98.99119 89.65757 0.89659 99.99869 0.00000007733814300082
38900 98.99374 89.63392 0.89633 100.00147 0.00000006840325283974
39000 98.99447 89.50609 0.89505 100.00097 0.00000008142274054990
39100 98.99259 89.37517 0.89373 100.00266 0.00000009314302928942
39200 98.99522 89.50259 0.89499 100.00347 0.00000009029020020535
39300 98.99363 89.35308 0.89348 100.00524 0.00000007818943004168
39400 98.99485 89.29248 0.89285 100.00794 0.00000003068480225465
39500 98.99596 89.23754 0.89231 100.00689 0.00000004412804344156
39600 98.99703 89.14500 0.89141 100.00437 0.00000002059394432763
39700 98.99335 88.98463 0.88983 100.00159 0.00000002303515600488
39800 98.99473 88.99986 0.88998 100.00254 0.00000000903951047349
39900 98.99725 89.19544 0.89193 100.00323 -0.00000000712887526788
40000 98.99977 89.46646 0.89461 100.00640 -0.00000001596707477347
40100 99.00226 89.93700 0.89934 100.00304 -0.00000003760700906241
40200 99.00474 90.19844 0.90193 100.00572 -0.00000004649461970985
40300 99.00589 90.26449 0.90260 100.00486 -0.00000003366584166997
40400 99.00288 90.10693 0.90106 100.00050 -0.00000003947715754293
40500 98.99947 90.00930 0.90008 100.00131 -0.00000005048691775755
40600 98.99834 89.89198 0.89890 100.00273 -0.00000004465282188448
40700 98.99423 89.72644 0.89726 99.99998 -0.00000005653146217810
40800 98.99067 89.60032 0.89600 99.99995 -0.00000004609302095560
40900 98.99313 90.05363 0.90051 100.00342 -0.00000003092856104558
41000 98.99558 90.38843 0.90385 100.00376 -0.00000003049416363865
41100 98.99802 90.46920 0.90460 100.00976 -0.00000002351846717374
41200 99.00045 90.52896 0.90520 100.00971 -0.00000005031412797507
41300 99.00287 90.71906 0.90706 100.01487 -0.00000006343981340251
41400 99.00528 90.85352 0.90840 100.01500 -0.00000009175322190913
41500 99.00031 90.68069 0.90669 100.01337 -0.00000009536040579405
41600 99.00040 90.62018 0.90604 100.01810 -0.00000009469236772475
41700 99.00288 90.83524 0.90818 100.01940 -0.00000011198595473161
41800 99.00523 90.99052 0.90977 100.01483 -0.00000013996586289977
41900 99.00757 91.25983 0.91247 100.01432 -0.00000012251811654096
42000 99.00846 91.22088 0.91205 100.01779 -0.00000013529964348891
42100 99.00789 91.15296 0.91137 100.01760 -0.00000012673555715992
42200 99.00634 91.04489 0.91032 100.01422 -0.00000014700160022585
42300 99.00838 91.01643 0.91000 100.01761 -0.00000014885493726524
42400 99.01072 91.07934 0.91064 100.01663 -0.00000015806790543138
42500 99.00913 90.94875 0.90933 100.01696 -0.00000016890467691155
42600 99.00897 90.81496 0.90798 100.01838 -0.00000014892508204412
42700 99.00898 90.75167 0.90734 100.01948 -0.00000014619364208102
42800 99.00955 90.79992 0.90782 100.02026 -0.00000013017911726365
42900 99.01019 90.66968 0.90654 100.01695 -0.00000014426248640120
43000 99.00962 90.55505 0.90541 100.01516 -0.00000014174139550960
43100 99.00668 90.39999 0.90386 100.01578 -0.00000013313965041561
43200 99.00556 90.27639 0.90264 100.01403 -0.00000012919970515668
43300 99.00401 90.16710 0.90156 100.01229 -0.00000013878231186482
43400 99.00632 90.16373 0.90155 100.01009 -0.00000016289328641506
43500 99.00552 90.12099 0.90111 100.01159 -0.00000014794922265082
43600 99.00297 90.05068 0.90042 100.00963 -0.00000016024962690153
43700 98.99686 89.93373 0.89928 100.00588 -0.00000015268373942945
43800 98.99386 89.84041 0.89838 100.00263 -0.00000015548724263681
43900 98.99153 89.71834 0.89716 100.00267 -0.00000015981873957571
44000 98.98745 89.57402 0.89575 99.99927 -0.00000016043112793795
44100 98.98972 89.60873 0.89607 100.00220 -0.00000016683414116869
44200 98.99202 89.70490 0.89703 100.00262 -0.00000016697686078260
44300 98.99429 89.75147 0.89749 100.00309 -0.00000013876633886412
44400 98.98679 89.58545 0.89585 100.00029 -0.00000012957636386091
44500 98.98410 89.46345 0.89466 99.99710 -0.00000011092896556875
44600 98.98508 89.40400 0.89408 99.99570 -0.00000012838317786645
44700 98.98431 89.33279 0.89334 99.99913 -0.00000012069513388724
44800 98.98657 89.50671 0.89505 100.00152 -0.00000011839934188629
44900 98.98887 89.99280 0.89991 100.00249 -0.00000011908595354271
45000 98.99108 90.62909 0.90624 100.00540 -0.00000013231414186521
45100 98.99331 91.21805 0.91215 100.00293 -0.00000013353171368635
45200 98.99435 91.19086 0.91191 99.99958 -0.00000014796593461597
45300 98.99385 91.14204 0.91142 99.99954 -0.00000015039218226320
45400 98.99010 91.02421 0.91028 99.99623 -0.00000016446625750177
45500 98.99211 91.02648 0.91029 99.99743 -0.00000015398482844375
45600 98.99267 90.90615 0.90910 99.99603 -0.00000012749539735069
45700 98.99162 90.85727 0.90858 99.99875 -0.00000014404555770398
45800 98.99039 90.73526 0.90737 99.99801 -0.00000015906027783785
45900 98.99184 90.72419 0.90724 100.00074 -0.00000017077556435652
46000 98.99402 90.76253 0.90759 100.00430 -0.00000016873111974292
46100 98.99522 90.77995 0.90776 100.00399 -0.00000017335334234758
46200 98.99742 91.15752 0.91154 100.00413 -0.00000019331830003466
46300 98.99844 91.20978 0.91208 100.00160 -0.00000020165300895769
46400 98.99768 91.11406 0.91113 100.00071 -0.00000022027981572137
46500 98.99934 91.17209 0.91168 100.00501 -0.00000024429999712083
46600 99.00083 91.21004 0.91206 100.00476 -0.00000023967649553924
46700 98.99228 91.05470 0.91056 99.99897 -0.00000024405828469298
46800 98.99142 91.06301 0.91063 99.99955 -0.00000023734357057492
46900 98.99360 91.12850 0.91129 99.99985 -0.00000023699676887645
47000 98.99571 91.26045 0.91259 100.00170 -0.00000022192014625944
47100 98.99762 91.32137 0.91319 100.00217 -0.00000024823677335917
47200 98.99977 91.32197 0.91319 100.00352 -0.00000024799379616525
47300 99.00191 91.35512 0.91350 100.00552 -0.00000024957836330941
47400 98.99898 91.21802 0.91214 100.00477 -0.00000024491824035522
47500 98.99797 91.10768 0.91104 100.00377 -0.00000024015059807425
47600 98.99933 91.01164 0.91007 100.00546 -0.00000023754633105000
47700 98.99972 90.89697 0.90893 100.00474 -0.00000023483052302709
47800 98.99811 90.78200 0.90778 100.00456 -0.00000023124754022774
47900 98.99971 90.74557 0.90740 100.00662 -0.00000021544259709572
48000 99.00179 90.96902 0.90961 100.00840 -0.00000021241133651984
48100 99.00386 91.05789 0.91050 100.00823 -0.00000021316706977359
48200 99.00285 90.98756 0.90982 100.00587 -0.00000022696920609633
48300 99.00019 90.86641 0.90860 100.00720 -0.00000020729245875373
48400 99.00139 90.79380 0.90788 100.00684 -0.00000022889014417160
48500 99.00058 90.72245 0.90717 100.00625 -0.00000022436324798036
48600 99.00205 90.68500 0.90677 100.00918 -0.00000021611438683067
48700 99.00238 90.58847 0.90579 100.01082 -0.00000021921721327089
48800 99.00323 90.50367 0.90493 100.01131 -0.00000020571256698076
48900 99.00519 90.50020 0.90488 100.01364 -0.00000019187146449440
49000 99.00562 90.45004 0.90436 100.01498 -0.00000018382337430012
49100 99.00306 90.31440 0.90303 100.01308 -0.00000018534821322191
49200 99.00174 90.18985 0.90177 100.01386 -0.00000018370559473624
49300 99.00377 90.12530 0.90112 100.01458 -0.00000016516642631359
49400 99.00086 89.98894 0.89978 100.01211 -0.00000013355182204577
49500 98.99856 89.86349 0.89855 100.00994 -0.00000011106229180768
49600 98.99954 89.82106 0.89813 100.00938 -0.00000010366051128585
49700 98.99969 89.73571 0.89727 100.00942 -0.00000008489303127135
49800 99.00171 89.99997 0.89986 100.01574 -0.00000008544853358217
49900 99.00370 90.38882 0.90376 100.01451 -0.00000009247385435174
50000 99.00522 90.42542 0.90415 100.01190 -0.00000010370376912761
50100 99.00722 90.53460 0.90522 100.01345 -0.00000011342363848144
50200 99.00920 90.57418 0.90563 100.01271 -0.00000011835838620300
50300 99.01116 90.72542 0.90712 100.01531 -0.00000010741933920144
50400 99.01312 91.25690 0.91243 100.01484 -0.00000011484644346638
50500 99.01507 91.70037 0.91687 100.01505 -0.00000008956742192368
50600 99.01702 92.13371 0.92119 100.01581 -0.00000009161014702386
50700 99.01901 92.32743 0.92311 100.01799 -0.00000009333223260910
50800 99.01934 92.25097 0.92233 100.01913 -0.00000011853522607908
50900 99.01921 92.18860 0.92171 100.01947 -0.00000011352676665410
51000 99.01915 92.06497 0.92046 100.02078 -0.00000011414995526593
51100 99.01825 91.97641 0.91958 100.01955 -0.00000012249530811914
51200 99.01535 91.85757 0.91842 100.01680 -0.00000011597498428273
51300 99.01428 91.82380 0.91808 100.01737 -0.00000011756070250613
51400 99.01620 92.21666 0.92200 100.01802 -0.00000011148863166000
51500 99.01810 92.68021 0.92662 100.01942 -0.00000011080372530614
51600 99.02002 92.94616 0.92928 100.01967 -0.00000010341530298774
51700 99.02132 92.96295 0.92947 100.01683 -0.00000011821924772448
51800 99.01852 92.82977 0.92816 100.01504 -0.00000012491486245381
51900 99.01364 92.70826 0.92699 100.00996 -0.00000012729954335100
52000 99.01374 92.63309 0.92622 100.01179 -0.00000012563121742915
52100 99.01440 92.59292 0.92581 100.01253 -0.00000012759551282215
52200 99.01480 92.52527 0.92516 100.01010 -0.00000013699903433917
52300 99.01248 92.41631 0.92409 100.00832 -0.00000015267825403953
52400 99.01011 92.34226 0.92335 100.00782 -0.00000015906304895452
52500 99.01186 92.30517 0.92295 100.01059 -0.00000014612908216804
52600 99.01199 92.21096 0.92203 100.00846 -0.00000020057522931438
52700 99.01018 92.11239 0.92106 100.00679 -0.00000025985070806200
52800 99.00721 91.98194 0.91979 100.00311 -0.00000024711155788282
52900 99.00758 91.94952 0.91945 100.00522 -0.00000023587715247686
53000 99.00948 92.01665 0.92011 100.00640 -0.00000021468343902598
53100 99.01132 92.24458 0.92235 100.01049 -0.00000020506359987849
53200 99.01320 92.62982 0.92620 100.01096 -0.00000021366180646964
53300 99.01502 92.82651 0.92815 100.01218 -0.00000022442455360761
53400 99.01687 93.09725 0.93085 100.01346 -0.00000022684474743073
53500 99.01870 93.47066 0.93459 100.01292 -0.00000022749989625481
53600 99.02053 93.63607 0.93619 100.01808 -0.00000024062531167601
53700 99.02236 93.89709 0.93880 100.01870 -0.00000023774305191182
53800 99.02421 93.97674 0.93960 100.01788 -0.00000021825387364061
53900 99.02457 93.90411 0.93886 100.01909 -0.00000024158300959698
54000 99.02326 93.81094 0.93794 100.01761 -0.00000025098117362177
54100 99.02093 93.71005 0.93694 100.01689 -0.00000024018918054480
54200 99.02230 93.68180 0.93662 100.02070 -0.00000022338183214288
54300 99.02411 93.81499 0.93796 100.02028 -0.00000023937228377235
54400 99.02441 93.76873 0.93751 100.01910 -0.00000020512879927992
54500 99.02547 93.71353 0.93696 100.01914 -0.00000022691540380038
54600 99.02528 93.66624 0.93650 100.01780 -0.00000019665424133564
54700 99.02248 93.54143 0.93527 100.01537 -0.00000015920433327210
54800 99.02253 93.43267 0.93419 100.01451 -0.00000018076099195241
54900 99.01981 93.30500 0.93292 100.01359 -0.00000018430650072787
55000 99.02061 93.27858 0.93266 100.01309 -0.00000020870568562259
55100 99.02007 93.27970 0.93267 100.01316 -0.00000020899753394588
55200 99.01969 93.18624 0.93176 100.01101 -0.00000021881368184040
55300 99.01680 93.07506 0.93065 100.01040 -0.00000022354846862527
55400 99.01277 92.94677 0.92938 100.00894 -0.00000023807608329207
55500 99.01454 93.13689 0.93127 100.01097 -0.00000024975351209378
55600 99.01632 93.42262 0.93411 100.01255 -0.00000026391667518055
55700 99.01809 93.70603 0.93691 100.01571 -0.00000027207229891246
55800 99.01958 93.81008 0.93798 100.01262 -0.00000027709299388334
55900 99.01961 93.69550 0.93684 100.01181 -0.00000026918495166228
56000 99.01831 93.61955 0.93607 100.01370 -0.00000025939105796624
56100 99.01473 93.52590 0.93515 100.01187 -0.00000025042112383744
56200 99.01182 93.41618 0.93406 100.01064 -0.00000022713695102539
56300 99.00816 93.33339 0.93325 100.00952 -0.00000021476816414179
56400 99.00991 93.56030 0.93550 100.01071 -0.00000018560268699730
56500 99.01055 93.58979 0.93580 100.00996 -0.00000022243180808346
56600 99.01073 93.52384 0.93512 100.01244 -0.00000022023530732440
56700 99.01223 93.49895 0.93485 100.01485 -0.00000022062930327138
56800 99.01316 93.42716 0.93412 100.01621 -0.00000020579049930802
56900 99.01163 93.33841 0.93325 100.01385 -0.00000017879203539906
57000 99.01035 93.23749 0.93224 100.01423 -0.00000019356967584372
57100 99.01106 93.19898 0.93186 100.01375 -0.00000016743960884469
57200 99.01007 93.11393 0.93102 100.01271 -0.00000016187429707770
57300 99.01043 93.00467 0.92993 100.01281 -0.00000018282813130099
57400 99.00754 92.87595 0.92865 100.01127 -0.00000018013287217400
57500 99.00529 92.76414 0.92756 100.00880 -0.00000012753346823047
57600 99.00608 92.76533 0.92759 100.00717 -0.00000016878527731023
57700 99.00694 92.71280 0.92704 100.00981 -0.00000014970432005157
57800 99.00298 92.60721 0.92600 100.00751 -0.00000015559135135845
57900 99.00012 92.50543 0.92500 100.00592 -0.00000016042741890487
58000 98.99986 92.44678 0.92441 100.00607 -0.00000017024883902650
58100 99.00159 92.56881 0.92562 100.00761 -0.00000019819782437480
58200 99.00327 92.59989 0.92595 100.00579 -0.00000017252442319204
58300 99.00124 92.51652 0.92513 100.00400 -0.00000020533930467082
58400 99.00296 92.57289 0.92567 100.00603 -0.00000016573855532442
58500 99.00462 92.81870 0.92812 100.00737 -0.00000016816154868593
58600 99.00637 93.08350 0.93075 100.00906 -0.00000016235317445989
58700 99.00803 93.09455 0.93088 100.00681 -0.00000017159510434794
58800 99.00841 93.02519 0.93018 100.00736 -0.00000018114262445579
58900 99.00686 92.92638 0.92920 100.00740 -0.00000016972595062725
59000 99.00854 92.93701 0.92930 100.00717 -0.00000021001939387588
59100 99.00824 92.86870 0.92863 100.00567 -0.00000018885121733092
59200 99.00800 92.77727 0.92772 100.00617 -0.00000016344506548194
59300 99.00853 92.72969 0.92724 100.00563 -0.00000012969692875231
59400 99.00821 92.64286 0.92637 100.00594 -0.00000014389554792160
59500 99.00681 92.54190 0.92537 100.00528 -0.00000010660451721378
59600 99.00803 92.48784 0.92483 100.00513 -0.00000011206532235519
59700 99.00712 92.39099 0.92386 100.00506 -0.00000010985175435962
59800 99.00873 92.51359 0.92507 100.00714 -0.00000011121414900117
59900 99.01040 92.69921 0.92691 100.00935 -0.00000010825149843185
60000 99.01203 93.05556 0.93046 100.01068 -0.00000010684586015941
60100 99.01368 93.43135 0.93420 100.01240 -0.00000010423579510643
60200 99.01533 94.11615 0.94102 100.01527 -0.00000008415921115557
60300 99.01695 94.96702 0.94949 100.01854 -0.00000010855546861421
60400 99.01859 95.83796 0.95820 100.01921 -0.00000012365207169296
60500 99.02021 96.58892 0.96569 100.02106 -0.00000014464364994637
60600 99.02181 97.35223 0.97333 100.01993 -0.00000015347494297657
60700 99.02346 97.97047 0.97954 100.01679 -0.00000017459116463669
60800 99.02441 98.05627 0.98037 100.01956 -0.00000019636419779090
60900 99.01950 98.00513 0.97991 100.01484 -0.00000017119279505096
61000 99.01618 97.88893 0.97876 100.01293 -0.00000015012422238669
61100 99.01629 97.82375 0.97811 100.01340 -0.00000015437024103448
61200 99.01294 97.72770 0.97718 100.01028 -0.00000016966032490018
61300 99.01271 97.62959 0.97619 100.01039 -0.00000015890013571607
61400 99.01271 97.61998 0.97609 100.01129 -0.00000014353582855620
61500 99.01153 97.51483 0.97503 100.01192 -0.00000016401916980158
61600 99.01292 97.50100 0.97488 100.01359 -0.00000018600927376156
61700 99.01403 97.47435 0.97462 100.01224 -0.00000018833171111510
61800 99.01375 97.40805 0.97397 100.01154 -0.00000020852569093677
61900 99.01479 97.36317 0.97350 100.01389 -0.00000017369410443280
62000 99.01633 97.56244 0.97548 100.01524 -0.00000016038528372064
62100 99.01613 97.73318 0.97722 100.01187 -0.00000015649908391424
62200 99.01479 97.62694 0.97616 100.01111 -0.00000013562522838129
62300 99.01584 97.56695 0.97557 100.01064 -0.00000014401007319975
62400 99.01571 97.49212 0.97483 100.00896 -0.00000015816360132703
62500 99.01592 97.40964 0.97402 100.00834 -0.00000015828337041057
62600 99.01459 97.30455 0.97298 100.00682 -0.00000016174715256057
62700 99.01406 97.22237 0.97217 100.00520 -0.00000013581792757122
62800 99.01563 97.30336 0.97295 100.00820 -0.00000012650650660362
62900 99.01719 97.59465 0.97585 100.00990 -0.00000010352330548358
63000 99.01876 97.92523 0.97918 100.00789 -0.00000010175885734043
63100 99.02032 98.11667 0.98109 100.00764 -0.00000010701687358505
63200 99.02186 98.24098 0.98233 100.00815 -0.00000008823570851746
63300 99.02188 98.23652 0.98229 100.00733 -0.00000007378004340808
63400 99.02289 98.15247 0.98147 100.00591 -0.00000007259490075739
63500 99.02369 98.12799 0.98122 100.00606 -0.00000004764601158058
63600 99.02372 98.10102 0.98095 100.00571 -0.00000003911878820873
63700 99.02397 98.04172 0.98036 100.00571 -0.00000004062378877734
63800 99.02275 97.96437 0.97958 100.00630 -0.00000004289691446502
63900 99.02238 97.90455 0.97898 100.00648 -0.00000004126742680910
64000 99.02256 97.81641 0.97811 100.00570 -0.00000003726096053924
64100 99.02363 97.86022 0.97853 100.00725 -0.00000001055927612015
64200 99.02251 97.75111 0.97745 100.00601 -0.00000001781623382158
64300 99.02408 97.84973 0.97842 100.00788 -0.00000002949737165636
64400 99.02555 97.95968 0.97949 100.01054 -0.00000004347596416210
64500 99.02215 97.85974 0.97850 100.00966 -0.00000002716402036640
64600 99.02292 97.77701 0.97768 100.00971 0.00000000253992027410
64700 99.02087 97.66542 0.97657 100.00815 0.00000001149673778400
64800 99.01941 97.57412 0.97568 100.00630 0.00000001010290873182
64900 99.02091 97.60858 0.97601 100.00730 0.00000003462018582923
65000 99.02246 97.72401 0.97715 100.00942 0.00000005504331568318
65100 99.02377 97.78063 0.97771 100.00989 0.00000006677377939468
65200 99.02526 98.13857 0.98126 100.01259 0.00000008684062891007
65300 99.02677 98.74241 0.98728 100.01484 0.00000009114346255501
65400 99.02827 99.38250 0.99367 100.01540 0.00000009262591049719
65500 99.02975 99.79911 0.99784 100.01472 0.00000010171046938012
65600 99.03125 100.22409 1.00210 100.01404 0.00000009329757233445
65700 99.03270 100.66873 1.00655 100.01379 0.00000010050267462702
65800 99.03416 100.77198 1.00757 100.01511 0.00000006841460731266
65900 99.03369 100.71066 1.00696 100.01455 0.00000004968892142188
66000 99.03412 100.67425 1.00658 100.01620 0.00000007161456494487
66100 99.03559 100.74025 1.00720 100.01973 0.00000006436404476062
66200 99.03530 100.68881 1.00670 100.01852 0.00000009138757661731
66300 99.03654 100.64903 1.00629 100.01991 0.00000010915694304003
66400 99.03605 100.60073 1.00579 100.02137 0.00000010968334152039
66500 99.03699 100.56769 1.00547 100.02081 0.00000012581519115429
66600 99.03471 100.48490 1.00466 100.01899 0.00000012626524892312
66700 99.03356 100.40925 1.00391 100.01831 0.00000014855811514281
66800 99.03419 100.33574 1.00319 100.01710 0.00000017752199710230
66900 99.03428 100.23301 1.00216 100.01737 0.00000017981928124300
67000 99.03463 100.17435 1.00157 100.01743 0.00000017572408239630
67100 99.03380 100.06435 1.00046 100.01788 0.00000019021261721264
67200 99.03417 99.98993 0.99974 100.01635 0.00000016745796926898
67300 99.03320 99.89744 0.99882 100.01591 0.00000015710710954409
67400 99.03249 99.84614 0.99830 100.01580 0.00000012200854371258
67500 99.03014 99.74709 0.99733 100.01440 0.00000013103698393024
67600 99.03128 99.77527 0.99759 100.01593 0.00000013724353209454
67700 99.03241 99.78563 0.99771 100.01473 0.00000015655763263567
67800 99.03359 99.74273 0.99728 100.01500 0.00000014998593655946
67900 99.03409 99.73336 0.99717 100.01626 0.00000018030154080861
68000 99.03502 99.80793 0.99790 100.01821 0.00000020907185671604
68100 99.03462 99.81684 0.99799 100.01744 0.00000019797130335064
68200 99.03369 99.73928 0.99725 100.01443 0.00000020026583058552
68300 99.03148 99.63138 0.99618 100.01341 0.00000018035213145140
68400 99.02623 99.51246 0.99502 100.01088 0.00000017470919999596
68500 99.02599 99.41828 0.99407 100.01177 0.00000017046980360647
68600 99.02740 99.42859 0.99417 100.01187 0.00000016744668585034
68700 99.02543 99.32323 0.99314 100.00892 0.00000017733889023930
68800 99.02448 99.22395 0.99216 100.00813 0.00000018257247802467
68900 99.02336 99.17310 0.99165 100.00788 0.00000020290903535169
69000 99.02408 99.13485 0.99127 100.00778 0.00000018461990691776
69100 99.02380 99.07682 0.99070 100.00685 0.00000020853266846643
69200 99.02370 98.99047 0.98985 100.00504 0.00000021268306227284
69300 99.02335 98.91329 0.98909 100.00421 0.00000020900255037759
69400 99.02176 98.80941 0.98807 100.00245 0.00000022447599690167
69500 99.02122 98.73934 0.98735 100.00419 0.00000021750820167199
69600 99.01746 98.63000 0.98627 100.00352 0.00000019464474121378
69700 99.01709 98.55837 0.98555 100.00304 0.00000019750302726607
69800 99.01589 98.48160 0.98478 100.00394 0.00000020180759463528
69900 99.01393 98.39356 0.98391 100.00249 0.00000022538294786045
70000 99.01513 98.34133 0.98338 100.00356 0.00000021480003908891
70100 99.01596 98.31801 0.98314 100.00381 0.00000020035068359903
70200 99.01736 98.52644 0.98519 100.00789 0.00000020874666972759
70300 99.01876 98.79815 0.98792 100.00578 0.00000022514230124671
70400 99.01926 98.71586 0.98709 100.00659 0.00000019465149136977
70500 99.02067 98.87603 0.98868 100.00847 0.00000016729276808292
70600 99.02204 99.04185 0.99033 100.00916 0.00000016061598273609
70700 99.02331 99.08910 0.99080 100.00939 0.00000016444286643491
70800 99.02380 99.03979 0.99031 100.00917 0.00000015981484580152
70900 99.02495 99.11824 0.99108 100.01004 0.00000017351960934775
71000 99.02637 99.26673 0.99257 100.01020 0.00000015202701320050
71100 99.02631 99.25826 0.99247 100.01145 0.00000015238077821778
71200 99.02766 99.41186 0.99401 100.01117 0.00000016007508918392
71300 99.02889 99.47825 0.99467 100.01094 0.00000017107480232426
71400 99.02706 99.37948 0.99369 100.01105 0.00000016892694532089
71500 99.02616 99.29047 0.99278 100.01291 0.00000015334046565840
71600 99.02441 99.20084 0.99189 100.01177 0.00000017550179620685
71700 99.02575 99.24458 0.99231 100.01417 0.00000017280744657455
71800 99.02711 99.41134 0.99397 100.01471 0.00000017972223531615
71900 99.02665 99.35373 0.99341 100.01318 0.00000019410629192862
72000 99.02543 99.26292 0.99253 100.01008 0.00000019574373766318
72100 99.02554 99.23040 0.99220 100.01042 0.00000023416322392222
72200 99.02483 99.13187 0.99122 100.01004 0.00000021898686952682
72300 99.02441 99.07111 0.99061 100.01025 0.00000023450125752333
72400 99.02232 98.97841 0.98970 100.00829 0.00000025102751521899
72500 99.02319 98.89419 0.98886 100.00822 0.00000023974635610102
72600 99.02220 98.79869 0.98791 100.00733 0.00000024006874355109
72700 99.02172 98.72074 0.98714 100.00703 0.00000020347148677047
72800 99.02290 98.72505 0.98718 100.00750 0.00000020535742351058
72900 99.02273 98.64804 0.98641 100.00668 0.00000021931330707048
73000 99.02407 98.66961 0.98661 100.00837 0.00000021966067720314
73100 99.02305 98.57440 0.98567 100.00798 0.00000020657191157625
73200 99.02405 98.54998 0.98541 100.00870 0.00000018107272126144
73300 99.02506 98.53540 0.98527 100.00842 0.00000019678094531628
73400 99.02536 98.48678 0.98477 100.01007 0.00000021094487578921
73500 99.02384 98.42260 0.98412 100.01039 0.00000023863967157922
73600 99.02518 98.51811 0.98506 100.01183 0.00000025632510869400
73700 99.02652 98.90760 0.98895 100.01269 0.00000031102260322768
73800 99.02784 99.22726 0.99215 100.01188 0.00000031862072091826
73900 99.02914 99.37979 0.99369 100.01083 0.00000032518663317660
74000 99.03011 99.40683 0.99397 100.01035 0.00000031455441273920
74100 99.03027 99.35268 0.99343 100.00935 0.00000031144594458965
74200 99.02963 99.27220 0.99262 100.01031 0.00000030217630353491
74300 99.03094 99.32442 0.99314 100.01063 0.00000031417138757206
74400 99.03175 99.36593 0.99356 100.00997 0.00000034804995152626
74500 99.03237 99.32841 0.99317 100.01105 0.00000034749791666400
74600 99.03364 99.44542 0.99434 100.01193 0.00000041295776043171
74700 99.03455 99.45929 0.99447 100.01282 0.00000038187096151887
74800 99.03587 99.53665 0.99524 100.01238 0.00000033251475883844
74900 99.03626 99.56298 0.99550 100.01270 0.00000033820595035650
75000 99.03277 99.46163 0.99450 100.01143 0.00000036293953087352
75100 99.03248 99.37456 0.99363 100.01192 0.00000036536657432862
75200 99.02918 99.27414 0.99263 100.01128 0.00000033735099691512
75300 99.02816 99.19269 0.99182 100.01045 0.00000034658597769521
75400 99.02669 99.10481 0.99095 100.01012 0.00000036965847982628
75500 99.02751 99.05867 0.99049 100.00964 0.00000040411796931039
75600 99.02827 99.01388 0.99004 100.01042 0.00000043606659971829
75700 99.02954 98.99793 0.98987 100.01152 0.00000041106039816441
75800 99.02864 98.93050 0.98920 100.01037 0.00000042128995403345
75900 99.02836 98.89386 0.98884 100.01005 0.00000038772695631906
76000 99.02967 99.07271 0.99062 100.01118 0.00000037478848469163
76100 99.03091 99.16940 0.99159 100.01014 0.00000038750748387884
76200 99.03219 99.26956 0.99259 100.01073 0.00000040220952257641
76300 99.03308 99.26968 0.99259 100.01050 0.00000037969364541368
76400 99.03353 99.24039 0.99230 100.01038 0.00000034852011765452
76500 99.03139 99.14186 0.99132 100.01034 0.00000032345796796562
76600 99.03186 99.13234 0.99122 100.01093 0.00000032604440036721
76700 99.03100 99.07966 0.99068 100.01149 0.00000033461600423834
76800 99.02910 98.98317 0.98973 100.01070 0.00000031357633645257
76900 99.02721 98.88945 0.98880 100.01000 0.00000032248397019430
77000 99.02823 98.88246 0.98870 100.01262 0.00000033277203215221
77100 99.02948 98.96984 0.98955 100.01475 0.00000034395503689666
77200 99.02987 98.99204 0.98978 100.01443 0.00000037036207345409
77300 99.03099 98.93136 0.98916 100.01546 0.00000039533463791486
77400 99.02783 98.85090 0.98839 100.01247 0.00000035295218481224
77500 99.02299 98.74417 0.98733 100.01154 0.00000038658848211526
77600 99.02416 98.74624 0.98733 100.01336 0.00000039904797688450
77700 99.02540 98.79687 0.98783 100.01436 0.00000038426995274676
77800 99.02575 98.72959 0.98715 100.01495 0.00000040607321238895
77900 99.02537 98.69138 0.98678 100.01361 0.00000038910778243917
78000 99.02479 98.61471 0.98603 100.01228 0.00000040196401585035
78100 99.02035 98.52544 0.98515 100.01108 0.00000037693571641739
78200 99.02000 98.47518 0.98466 100.00926 0.00000041169177222855
78300 99.02089 98.44978 0.98441 100.00936 0.00000041216325996629
78400 99.01885 98.37036 0.98363 100.00787 0.00000039776124083346
78500 99.01910 98.33880 0.98331 100.00805 0.00000039430069875834
78600 99.01778 98.24328 0.98236 100.00760 0.00000039125295359099
78700 99.01642 98.18681 0.98180 100.00723 0.00000043195723264944
78800 99.01639 98.12349 0.98115 100.00893 0.00000041352245716553
78900 99.01604 98.10504 0.98098 100.00726 0.00000042036735692363
79000 99.01493 98.03987 0.98033 100.00734 0.00000045293090522591
79100 99.01443 97.98009 0.97974 100.00585 0.00000044761124229353
79200 99.01517 97.92679 0.97921 100.00610 0.00000040362915854075
79300 99.01449 97.86474 0.97860 100.00526 0.00000042039252434733
79400 99.01419 97.82853 0.97824 100.00485 0.00000040683691793220
79500 99.01490 97.81205 0.97807 100.00503 0.00000043165557883640
79600 99.01494 97.74721 0.97741 100.00593 0.00000040888198782341
79700 99.01367 97.69284 0.97689 100.00408 0.00000035959908473160
79800 99.01480 97.65992 0.97656 100.00392 0.00000036846269324542
79900 99.01340 97.56955 0.97566 100.00370 0.00000033127933818378
80000 99.01394 97.50188 0.97497 100.00456 0.00000031097954433790
80100 99.01310 97.41455 0.97412 100.00286 0.00000027526843382475
80200 99.01267 97.37223 0.97372 100.00056 0.00000027004786318230
80300 99.01234 97.30290 0.97303 99.99980 0.00000026965909682986
80400 99.01350 97.28414 0.97284 100.00004 0.00000025279490500907
80500 99.01356 97.26857 0.97268 100.00053 0.00000020862174210379
80600 99.01478 97.32203 0.97322 100.00030 0.00000019833596809349
80700 99.01573 97.34432 0.97343 100.00092 0.00000021626200918945
80800 99.01616 97.28624 0.97284 100.00183 0.00000026528026353390
80900 99.01736 97.29194 0.97287 100.00506 0.00000027343769204435
81000 99.01856 97.51999 0.97513 100.00707 0.00000025196669639627
81100 99.01980 97.82029 0.97815 100.00584 0.00000021714532749684
81200 99.02099 98.19710 0.98190 100.00761 0.00000023922274294819
81300 99.02220 98.75178 0.98744 100.00817 0.00000027898195753551
81400 99.02341 99.38888 0.99382 100.00741 0.00000027284583836718
81500 99.02462 99.78924 0.99785 100.00396 0.00000025843834805528
81600 99.02577 99.89820 0.99895 100.00290 0.00000024226567063579
81700 99.02285 99.79908 0.99798 100.00142 0.00000022388728382339
81800 99.02330 99.73005 0.99729 100.00109 0.00000019180808408237
81900 99.02409 99.73591 0.99733 100.00275 0.00000020906534814458
82000 99.02528 99.91962 0.99917 100.00271 0.00000019834779152461
82100 99.02636 99.94995 0.99948 100.00156 0.00000022794853293817
82200 99.02754 99.98766 0.99985 100.00309 0.00000025664505187706
82300 99.02394 99.88966 0.99889 100.00104 0.00000027253285850293
82400 99.02299 99.80969 0.99811 99.99873 0.00000024643274798564
82500 99.02196 99.72500 0.99727 99.99817 0.00000023423706352332
82600 99.02251 99.73304 0.99733 99.99983 0.00000021361167057421
82700 99.02369 99.77723 0.99778 99.99888 0.00000021543810646563
82800 99.02321 99.72642 0.99728 99.99818 0.00000023362103718227
82900 99.02427 99.68796 0.99688 99.99955 0.00000019268865969480
83000 99.02337 99.60233 0.99604 99.99824 0.00000021413003992166
83100 99.02452 99.63090 0.99631 99.99947 0.00000022980714220466
83200 99.02533 99.62931 0.99630 99.99903 0.00000018482528219010
83300 99.02646 99.60981 0.99609 100.00046 0.00000015496463845466
83400 99.02552 99.56960 0.99568 100.00139 0.00000018389947342712
83500 99.02669 99.64956 0.99647 100.00292 0.00000019294678565984
83600 99.02785 99.79021 0.99785 100.00507 0.00000020217203200446
83700 99.02902 99.80801 0.99804 100.00404 0.00000020522625732156
83800 99.03019 99.86671 0.99861 100.00523 0.00000022491302331673
83900 99.02981 99.79864 0.99794 100.00495 0.00000019055811151247
84000 99.02996 99.74141 0.99736 100.00554 0.00000013131898413121
84100 99.02898 99.69488 0.99690 100.00507 0.00000014827438121756
84200 99.02961 99.66461 0.99659 100.00550 0.00000013451939651077
84300 99.02841 99.58474 0.99580 100.00507 0.00000013436311974147
84400 99.02835 99.54699 0.99540 100.00675 0.00000015371952599708
84500 99.02953 99.51830 0.99511 100.00753 0.00000019485946722853
84600 99.02716 99.43710 0.99431 100.00611 0.00000020804597511415
84700 99.02719 99.42392 0.99418 100.00619 0.00000023351634581559
84800 99.02718 99.43730 0.99431 100.00600 0.00000023858348185968
84900 99.02832 99.51205 0.99506 100.00571 0.00000027364504262550
85000 99.02947 99.63179 0.99624 100.00799 0.00000031191534333175
85100 99.03062 99.88707 0.99878 100.00919 0.00000030568411091281
85200 99.03174 100.27392 1.00266 100.00790 0.00000032431108820674
85300 99.03289 100.56034 1.00552 100.00801 0.00000027814847669561
85400 99.03401 100.91331 1.00904 100.00952 0.00000024524632635803
85500 99.03515 101.30301 1.01294 100.00871 0.00000027894176923837
85600 99.03627 101.70422 1.01694 100.01036 0.00000032213422684890
85700 99.03739 101.97821 1.01968 100.01011 0.00000032940394589787
85800 99.03835 102.04064 1.02031 100.00914 0.00000030443999321506
85900 99.03786 101.95688 1.01948 100.00909 0.00000027157325632743
86000 99.03734 101.89680 1.01888 100.00844 0.00000027345984676685
86100 99.03608 101.84854 1.01839 100.00920 0.00000026233909977691
86200 99.03722 101.87772 1.01868 100.00905 0.00000031698026248250
86300 99.03670 101.82361 1.01815 100.00893 0.00000031444209014353
86400 99.03611 101.76235 1.01754 100.00773 0.00000031892372476250
86500 99.03613 101.70242 1.01695 100.00747 0.00000029396960599115
86600 99.03637 101.68520 1.01676 100.00938 0.00000030116554228243
86700 99.03668 101.67149 1.01661 100.01020 0.00000034848709162816
86800 99.03780 101.79828 1.01785 100.01263 0.00000032400544114353
86900 99.03888 102.02789 1.02014 100.01351 0.00000033647019392902
87000 99.03998 102.25044 1.02237 100.01324 0.00000034800393677870
87100 99.03873 102.16386 1.02153 100.01051 0.00000033629386564371
87200 99.03780 102.09793 1.02086 100.01132 0.00000028645695238083
87300 99.03678 102.04006 1.02031 100.00896 0.00000032822242701513
87400 99.03549 101.96626 1.01957 100.00892 0.00000035556358568556
87500 99.03645 101.94160 1.01933 100.00799 0.00000037656761264770
87600 99.03571 101.89272 1.01886 100.00677 0.00000038238553656811
87700 99.03527 101.83455 1.01829 100.00514 0.00000030708567066995
87800 99.03481 101.76033 1.01756 100.00416 0.00000029085398978168
87900 99.03133 101.66284 1.01660 100.00296 0.00000027470797192564
88000 99.03133 101.58235 1.01579 100.00305 0.00000029269720869252
88100 99.03094 101.52383 1.01520 100.00376 0.00000028907128069022
88200 99.03202 101.56434 1.01559 100.00477 0.00000029031684789516
88300 99.03111 101.48985 1.01486 100.00356 0.00000033681430977595
88400 99.03206 101.48286 1.01480 100.00285 0.00000032088621537696
88500 99.03056 101.40023 1.01399 100.00131 0.00000032484832956925
88600 99.03072 101.35022 1.01351 99.99936 0.00000032326397558791
88700 99.03164 101.37893 1.01379 99.99955 0.00000029714392724145
88800 99.03230 101.34307 1.01343 99.99993 0.00000031392761457028
88900 99.03113 101.25934 1.01260 99.99982 0.00000035816616161810
89000 99.03177 101.21150 1.01212 99.99963 0.00000033907804208866
89100 99.03149 101.16180 1.01161 100.00043 0.00000037748688441752
89200 99.02949 101.07370 1.01073 100.00049 0.00000035589754077137
89300 99.03059 101.08412 1.01082 100.00166 0.00000032571860231201
89400 99.03167 101.13617 1.01134 100.00206 0.00000037493322224691
89500 99.03274 101.22025 1.01218 100.00187 0.00000036424985694339
89600 99.03359 101.23725 1.01234 100.00282 0.00000037674911368413
89700 99.03219 101.15635 1.01156 100.00068 0.00000036760152966053
89800 99.03218 101.10364 1.01103 100.00067 0.00000036226313682164
89900 99.03306 101.07587 1.01075 100.00093 0.00000038881820785264
90000 99.03292 101.02733 1.01026 100.00087 0.00000038572117944113
90100 99.03232 100.96318 1.00961 100.00175 0.00000036813287351833
90200 99.02898 100.87233 1.00872 100.00061 0.00000040308870552508
90300 99.02662 100.78525 1.00788 99.99736 0.00000040836177106485
90400 99.02605 100.71896 1.00721 99.99759 0.00000040056600880689
90500 99.02428 100.63723 1.00641 99.99601 0.00000042993853810458
90600 99.02509 100.60233 1.00605 99.99755 0.00000043412019579137
90700 99.02456 100.54191 1.00545 99.99679 0.00000040531665490562
90800 99.02481 100.48404 1.00487 99.99729 0.00000039439282772946
90900 99.02586 100.48208 1.00483 99.99917 0.00000034267672788246
91000 99.02692 100.52975 1.00530 100.00023 0.00000034860873654452
91100 99.02777 100.51148 1.00511 100.00003 0.00000040685500835025
91200 99.02596 100.45943 1.00460 99.99988 0.00000042020178625535
91300 99.02388 100.39405 1.00396 99.99824 0.00000038602317431469
91400 99.02310 100.34213 1.00345 99.99751 0.00000043940005411969
91500 99.02417 100.35547 1.00356 99.99909 0.00000045165513995471
91600 99.02458 100.30814 1.00309 99.99895 0.00000041705945363901
91700 99.02425 100.25176 1.00255 99.99719 0.00000040951725566174
91800 99.02409 100.22508 1.00227 99.99808 0.00000040146467483737
91900 99.02375 100.14859 1.00152 99.99682 0.00000041568681297122
92000 99.02479 100.14913 1.00153 99.99649 0.00000040868280848372
92100 99.02559 100.09519 1.00097 99.99789 0.00000039852271527252
92200 99.02528 100.03812 1.00040 99.99841 0.00000045535378490058
92300 99.02419 99.97351 0.99976 99.99756 0.00000043047006670349
92400 99.02526 100.15605 1.00157 99.99887 0.00000043315523612364
92500 99.02633 100.54516 1.00545 100.00040 0.00000042214342954594
92600 99.02692 100.64599 1.00646 99.99978 0.00000041862065813802
92700 99.02748 100.62889 1.00629 99.99986 0.00000040113516774909
92800 99.02730 100.56516 1.00566 99.99870 0.00000036995929519890
92900 99.02636 100.54822 1.00551 99.99732 0.00000035693258837455
93000 99.02740 100.54574 1.00549 99.99640 0.00000029332719009290
93100 99.02720 100.56537 1.00568 99.99749 0.00000027441514305337
93200 99.02827 100.71374 1.00716 99.99775 0.00000027521933532171
93300 99.02836 100.66801 1.00671 99.99715 0.00000032047451270500
93400 99.02921 100.64823 1.00651 99.99767 0.00000030922646487852
93500 99.03026 100.83227 1.00833 99.99926 0.00000030030193443054
93600 99.03130 101.01441 1.01015 99.99976 0.00000030635386849553
93700 99.03232 101.21228 1.01214 99.99856 0.00000032279542949709
93800 99.03218 101.16088 1.01164 99.99691 0.00000035978217738375
93900 99.03137 101.10321 1.01107 99.99611 0.00000036557185012498
94000 99.03235 101.09010 1.01093 99.99672 0.00000035721386382193
94100 99.03309 101.10498 1.01108 99.99740 0.00000037019418641648
94200 99.03271 101.04365 1.01045 99.99824 0.00000032879123068597
94300 99.02908 100.95853 1.00963 99.99563 0.00000029235087595225
94400 99.02998 100.96648 1.00971 99.99538 0.00000028868552703898
94500 99.03082 100.98044 1.00985 99.99569 0.00000030421769281475
94600 99.02935 100.89798 1.00903 99.99498 0.00000024690349675893
94700 99.03007 100.90344 1.00909 99.99450 0.00000020942979972460
94800 99.03108 100.96266 1.00968 99.99489 0.00000022506152674850
94900 99.03110 100.92598 1.00931 99.99463 0.00000022788780995597
95000 99.03077 100.88933 1.00895 99.99443 0.00000022673613386814
95100 99.03179 100.89244 1.00897 99.99533 0.00000022065530913551
95200 99.03284 100.90520 1.00909 99.99669 0.00000020368167952256
95300 99.03319 100.93294 1.00936 99.99653 0.00000017290660991875
95400 99.03422 101.04530 1.01047 99.99851 0.00000015934443808874
95500 99.03522 101.09992 1.01102 99.99805 0.00000015634284977750
95600 99.03548 101.07509 1.01077 99.99814 0.00000017969979637655
95700 99.03152 100.98861 1.00993 99.99571 0.00000019089718250598
95800 99.03252 101.02786 1.01032 99.99600 0.00000014327653730106
95900 99.03356 101.18039 1.01185 99.99520 0.00000011726294246728
96000 99.03455 101.35285 1.01356 99.99672 0.00000011260723908890
96100 99.03557 101.53372 1.01535 99.99860 0.00000009491084540514
96200 99.03655 101.81606 1.01817 99.99926 0.00000007615383879056
96300 99.03755 102.05930 1.02061 99.99785 0.00000006374197880632
96400 99.03855 102.13749 1.02138 99.99908 0.00000004532148523140
96500 99.03955 102.11090 1.02111 100.00020 0.00000005383769519085
96600 99.03908 102.05246 1.02053 99.99912 0.00000003678970017518
96700 99.03943 102.00398 1.02004 99.99976 0.00000009857092209131
96800 99.04039 102.06234 1.02061 100.00085 0.00000007136706869915
96900 99.04082 102.03108 1.02030 100.00065 0.00000005805053149288
97000 99.03876 101.95402 1.01954 100.00006 0.00000000903754937553
97100 99.03935 101.95195 1.01951 100.00066 0.00000000037891823013
97200 99.03947 101.92767 1.01926 100.00155 0.00000002421678857445
97300 99.04048 101.98748 1.01985 100.00283 -0.00000002896082662573
97400 99.04140 102.01242 1.02010 100.00203 -0.00000001751450895426
97500 99.04036 101.94834 1.01947 100.00124 -0.00000002207494276263
97600 99.03938 101.89229 1.01891 100.00085 -0.00000003306125506697
97700 99.04035 101.94034 1.01938 100.00210 -0.00000001539503102777
97800 99.04010 101.88826 1.01886 100.00186 0.00000000808174149824
97900 99.04081 101.86848 1.01866 100.00231 0.00000000170275882283
98000 99.04031 101.80115 1.01798 100.00356 0.00000005245348688732
98100 99.04128 101.77813 1.01775 100.00308 0.00000002847454538824
98200 99.04194 101.72894 1.01726 100.00329 0.00000003355890498824
98300 99.04286 101.74404 1.01741 100.00347 0.00000006283308096044
98400 99.04087 101.66659 1.01664 100.00268 0.00000002708821966735
98500 99.03850 101.59153 1.01590 100.00152 0.00000007467697571428
98600 99.03820 101.55949 1.01558 100.00146 0.00000007963990356075
98700 99.03716 101.50422 1.01504 99.99978 0.00000008990967614864
98800 99.03784 101.50353 1.01503 100.00008 0.00000006100297866851
98900 99.03663 101.46598 1.01467 99.99878 0.00000006965032639528
99000 99.03761 101.59221 1.01593 99.99933 0.00000008395809913964
99100 99.03858 101.78024 1.01780 99.99983 0.00000011201952077045
99200 99.03956 101.82051 1.01821 99.99951 0.00000008166172449364
99300 99.04051 101.87232 1.01873 99.99894 0.00000009750412743870
99400 99.04149 101.87030 1.01872 99.99808 0.00000008573150012126
99500 99.04054 101.80985 1.01812 99.99799 0.00000006244960104596
99600 99.04021 101.75293 1.01755 99.99838 0.00000005478776188284
99700 99.03958 101.67903 1.01680 99.99927 -0.00000000119239018659
99800 99.03954 101.69295 1.01692 100.00061 0.00000002446118685384
99900 99.04050 101.79570 1.01795 100.00061 0.00000004278362553123
100000 99.04147 101.94753 1.01947 100.00063 0.00000004865627545314
