#Arquivo Dados/ColetaTotal95.txt 
#Parâmetros(Ocupação: 95.00%, Capacidade: 371368.421 bps)
#Coleta|Ocupação|E(n)|E(w)|lambda|Little

100 94.76950 19.39974 0.19332 100.35000 -0.00000000000135713663
200 95.03199 22.28368 0.22237 100.21000 0.00000000002449240810
300 94.58532 20.97581 0.20888 100.42000 0.00000000003441869012
400 94.04607 21.03903 0.21097 99.72500 0.00000000002762945428
500 94.43685 22.76073 0.22808 99.79200 -0.00000000001266542426
600 94.07161 22.06612 0.22149 99.62500 -0.00000000002809485977
700 94.14525 22.39501 0.22475 99.64571 -0.00000000005341860287
800 94.08638 22.19161 0.22239 99.78625 -0.00000000015064927084
900 94.17590 22.17738 0.22225 99.78667 -0.00000000005797318181
1000 94.04112 21.70149 0.21762 99.72100 0.00000000003034728024
1100 94.19807 21.53391 0.21575 99.81182 0.00000000066520655650
1200 94.10877 21.25022 0.21318 99.68417 0.00000000026483704119
1300 94.22018 21.59863 0.21644 99.78846 0.00000000102092556631
1400 94.43997 22.45389 0.22479 99.88643 0.00000000071723249562
1500 94.46481 23.25072 0.23287 99.84467 0.00000000120882148735
1600 94.48643 23.81270 0.23844 99.86875 0.00000000128853372416
1700 94.51220 24.76014 0.24791 99.87471 0.00000000205316297297
1800 94.71239 26.67775 0.26682 99.98389 0.00000000184861548291
1900 94.66405 27.43142 0.27449 99.93684 0.00000000133452005002
2000 94.68009 28.49052 0.28512 99.92500 0.00000000133765709620
2100 94.67347 29.47292 0.29490 99.94286 0.00000000072191852496
2200 94.66223 30.34980 0.30374 99.92182 0.00000000033025315815
2300 94.72675 31.43481 0.31442 99.97609 -0.00000000003975131335
2400 94.64712 32.10867 0.32137 99.91167 -0.00000000000071764816
2500 94.66728 32.44794 0.32482 99.89640 -0.00000000089337959253
2600 94.65874 32.67053 0.32724 99.83769 -0.00000000204376249258
2700 94.58996 32.85632 0.32917 99.81444 0.00000000016980550299
2800 94.66274 33.67137 0.33714 99.87464 0.00000000077433526258
2900 94.69432 34.27022 0.34312 99.87862 0.00000000103246122762
3000 94.76033 34.94255 0.34969 99.92400 0.00000000083128526285
3100 94.76993 35.47977 0.35499 99.94484 -0.00000000000581223958
3200 94.86835 36.30347 0.36299 100.01313 -0.00000000084595086491
3300 94.86995 36.49990 0.36478 100.05879 -0.00000000177379178012
3400 94.92845 36.92180 0.36896 100.07059 -0.00000000216709139522
3500 94.93224 37.10265 0.37076 100.07171 -0.00000000350927109594
3600 94.96648 37.40509 0.37368 100.10028 -0.00000000195150562377
3700 94.94672 37.35874 0.37322 100.09946 -0.00000000188817494973
3800 94.97046 37.46855 0.37426 100.11421 -0.00000000154963686327
3900 94.91159 37.30111 0.37262 100.10487 -0.00000000220889262437
4000 94.90251 36.72049 0.36687 100.09125 -0.00000000111591447194
4100 94.90303 36.26618 0.36229 100.10146 0.00000000029842084359
4200 94.87542 35.73701 0.35712 100.07095 0.00000000011980461068
4300 94.89993 35.66875 0.35649 100.05581 0.00000000027594637686
4400 94.92779 35.52039 0.35500 100.05659 0.00000000145801948293
4500 94.92985 35.24587 0.35225 100.05844 0.00000000133746169695
4600 94.93137 35.04270 0.35028 100.04326 0.00000000191116811266
4700 94.94574 34.84190 0.34814 100.07894 0.00000000015939605191
4800 94.94138 34.49051 0.34460 100.08708 0.00000000134225786041
4900 94.96184 34.35455 0.34315 100.11429 0.00000000072240879945
5000 95.00308 34.24308 0.34199 100.12840 -0.00000000283804979517
5100 95.03085 34.23253 0.34186 100.13608 -0.00000000438773639644
5200 94.98902 34.12230 0.34086 100.10673 -0.00000000298065572224
5300 95.01551 34.34593 0.34306 100.11623 -0.00000000049200110652
5400 95.03734 34.51652 0.34472 100.13019 -0.00000000067186078923
5500 95.01985 34.53584 0.34496 100.11673 -0.00000000136378019988
5600 95.03843 34.32697 0.34296 100.09018 -0.00000000109749720423
5700 95.04814 34.07566 0.34039 100.10684 -0.00000000198392768880
5800 95.06323 34.02002 0.33981 100.11397 -0.00000000133029942617
5900 95.06811 33.82611 0.33793 100.09678 0.00000000015023005062
6000 95.05776 33.75033 0.33728 100.06500 -0.00000000113654152756
6100 95.04320 33.64241 0.33624 100.05377 -0.00000000216717666035
6200 95.04231 33.61972 0.33596 100.07161 -0.00000000241646347376
6300 95.05279 33.51465 0.33494 100.06095 -0.00000000239475639319
6400 95.04828 33.42621 0.33407 100.05734 -0.00000000260204302549
6500 95.06437 33.41056 0.33391 100.05800 -0.00000000204653360925
6600 95.04327 33.30017 0.33280 100.06121 -0.00000000175282366399
6700 95.00426 33.15175 0.33134 100.05493 0.00000000308954639650
6800 95.01311 33.21235 0.33190 100.06706 0.00000000148806122979
6900 94.97696 33.14253 0.33123 100.06043 0.00000000126539134726
7000 94.97367 33.17445 0.33161 100.03914 0.00000000087039353502
7100 95.00732 33.39536 0.33379 100.04930 -0.00000000176853376388
7200 94.99189 33.22457 0.33215 100.02806 -0.00000000087556628614
7300 95.00077 33.20213 0.33192 100.02918 0.00000000229221086556
7400 94.99502 33.13591 0.33124 100.03473 0.00000000375552389187
7500 94.98004 33.07901 0.33073 100.01867 0.00000000383705156537
7600 95.01129 33.15477 0.33150 100.01434 0.00000000235350228195
7700 95.01733 33.28242 0.33278 100.01338 0.00000000182859594133
7800 95.01739 33.39254 0.33391 100.00436 0.00000000132805411113
7900 95.00962 33.47566 0.33481 99.98430 0.00000000365469077224
8000 95.00082 33.57583 0.33585 99.97375 0.00000000172925496145
8100 95.00791 33.76085 0.33767 99.98247 0.00000000510026154643
8200 94.98261 33.89358 0.33900 99.98110 0.00000000124845200844
8300 94.95841 34.04073 0.34052 99.96590 -0.00000000129755761691
8400 94.96541 34.30292 0.34312 99.97321 0.00000000153969637040
8500 94.95849 34.47003 0.34481 99.96871 0.00000000307595371396
8600 94.97149 34.71255 0.34721 99.97605 0.00000000144194700624
8700 94.98844 34.92525 0.34933 99.97920 0.00000000010842171605
8800 94.99428 35.18013 0.35191 99.96909 0.00000000033633540397
8900 94.99634 35.43795 0.35452 99.96090 0.00000000100492769661
9000 94.97284 35.66999 0.35687 99.95189 0.00000000282707901533
9100 94.94276 35.91907 0.35937 99.95121 0.00000000308757108769
9200 94.95502 36.26147 0.36276 99.95859 0.00000000360023477697
9300 94.95026 36.65385 0.36672 99.95151 0.00000000185503523653
9400 94.94801 36.99735 0.37017 99.94809 -0.00000000507704811525
9500 94.96379 37.41480 0.37430 99.95958 -0.00000000620628526349
9600 94.95916 37.69208 0.37709 99.95479 -0.00000000913370001854
9700 94.94436 38.01776 0.38042 99.93577 -0.00000000842051406380
9800 94.94358 38.21453 0.38238 99.93765 0.00000000029456259654
9900 94.94987 38.42644 0.38449 99.94182 0.00000000492035212574
10000 94.94674 38.64957 0.38681 99.91820 0.00000000671006716857
10100 94.96955 38.97918 0.39008 99.92723 0.00000000622450357923
10200 94.96221 39.25623 0.39283 99.93265 0.00000000136279254548
10300 94.96389 39.51217 0.39536 99.93903 -0.00000000307556291546
10400 94.96956 39.73615 0.39760 99.93894 -0.00000000240912356730
10500 94.96692 39.97912 0.40004 99.93771 -0.00000000413546530353
10600 94.97017 40.16741 0.40188 99.94991 -0.00000000179996106908
10700 94.96877 40.34454 0.40364 99.95150 0.00000000511974462825
10800 94.97423 40.55899 0.40579 99.95148 0.00000000512081044235
10900 94.96458 40.74319 0.40768 99.93872 -0.00000000291477419978
11000 94.97733 41.02935 0.41048 99.95509 0.00000000253175613807
11100 94.98691 41.38660 0.41404 99.95820 -0.00000000222468088396
11200 94.98876 41.70124 0.41723 99.94848 -0.00000000348151019125
11300 94.97357 41.91146 0.41934 99.94726 0.00000000066399508114
11400 94.96838 42.14437 0.42168 99.94456 0.00000000256388688058
11500 94.97045 42.43527 0.42459 99.94435 0.00000000171564806806
11600 94.97439 42.79273 0.42813 99.95353 -0.00000000306119574134
11700 94.98951 43.06223 0.43077 99.96479 0.00000000197545801939
11800 94.99735 43.30538 0.43317 99.97322 0.00000000035756642092
11900 94.99850 43.50201 0.43516 99.96891 0.00000000057133320297
12000 94.99151 43.63944 0.43652 99.97108 -0.00000000261456989392
12100 95.00908 44.02701 0.44034 99.98331 -0.00000000673664146689
12200 95.02471 44.45405 0.44464 99.97828 -0.00000000491435514505
12300 95.00482 44.59151 0.44609 99.96114 -0.00000000610190653560
12400 95.02298 44.77805 0.44791 99.97218 -0.00000000708769931634
12500 95.01897 44.92036 0.44933 99.97112 -0.00000000426953050692
12600 95.01898 45.06816 0.45079 99.97492 -0.00000000404622824135
12700 95.03002 45.29460 0.45303 99.98165 -0.00000000310706838036
12800 95.02882 45.47141 0.45479 99.98391 -0.00000000318588888604
12900 95.01613 45.63976 0.45652 99.97256 -0.00000000078370732126
13000 95.01894 45.81639 0.45831 99.96915 0.00000000268784106083
13100 95.01961 45.96131 0.45981 99.95672 -0.00000000007386091738
13200 95.01828 46.15112 0.46173 99.95235 0.00000000984440617913
13300 95.02566 46.26275 0.46281 99.95970 0.00000000953922807412
13400 95.01091 46.36588 0.46387 99.95366 0.00000000699155577877
13500 95.00197 46.49781 0.46522 99.94859 0.00000000461392346551
13600 95.01751 46.75704 0.46779 99.95265 0.00000000880801565017
13700 95.03019 47.14442 0.47159 99.96810 0.00000001150701223196
13800 95.02003 47.26349 0.47281 99.96377 0.00000001080432099343
13900 95.03301 47.45692 0.47471 99.97072 0.00000000696907420661
14000 95.04391 47.65744 0.47666 99.98129 0.00000000431055724448
14100 95.03908 47.74771 0.47753 99.98865 0.00000000525577092958
14200 95.03819 47.89946 0.47908 99.98204 -0.00000000014857448605
14300 95.04564 48.02752 0.48034 99.98629 0.00000000292908453048
14400 95.05211 48.13590 0.48139 99.99313 0.00000000863446558697
14500 95.06706 48.34641 0.48345 100.00290 0.00000000269502464789
14600 95.04960 48.40973 0.48412 99.99438 -0.00000000476140371575
14700 95.05992 48.53834 0.48534 100.00952 -0.00000000473028194392
14800 95.06137 48.38210 0.48380 100.00493 -0.00000000385553988735
14900 95.04126 48.15015 0.48152 99.99544 -0.00000000945296818600
15000 95.02701 47.92884 0.47933 99.99127 -0.00000001159012441576
15100 95.02484 47.75386 0.47759 99.98954 -0.00000002226941830941
15200 95.04035 47.72227 0.47728 99.98836 -0.00000002714744340437
15300 95.03431 47.51971 0.47530 99.97797 -0.00000003059015796225
15400 95.03344 47.34970 0.47363 99.97149 -0.00000002408133070730
15500 95.03761 47.17002 0.47186 99.96626 -0.00000002463529114038
15600 95.05406 47.12514 0.47134 99.98173 -0.00000002446281399671
15700 95.05882 46.97074 0.46974 99.99268 -0.00000002598021353606
15800 95.05757 46.83970 0.46845 99.98956 -0.00000002167857360291
15900 95.04573 46.68725 0.46698 99.97792 -0.00000001638103697132
16000 95.03544 46.54472 0.46556 99.97562 -0.00000001670104410323
16100 95.02973 46.44957 0.46465 99.96770 -0.00000001979952912734
16200 95.03473 46.34844 0.46361 99.97309 -0.00000002932203102546
16300 95.04418 46.24232 0.46250 99.98258 -0.00000002999021120331
16400 95.04351 46.14450 0.46154 99.97860 -0.00000002572902246811
16500 95.04501 46.05894 0.46071 99.97364 -0.00000001921756620504
16600 95.04956 45.91140 0.45919 99.98422 -0.00000001478511535424
16700 95.05147 45.75532 0.45762 99.98593 -0.00000001745121380736
16800 95.04717 45.60901 0.45613 99.99113 -0.00000001628686163713
16900 95.05546 45.49889 0.45499 99.99876 -0.00000002386364883478
17000 95.05754 45.39212 0.45394 99.99518 -0.00000001991190856643
17100 95.06230 45.32138 0.45322 99.99778 -0.00000001718671427398
17200 95.07904 45.31576 0.45312 100.00919 -0.00000001115922998451
17300 95.08958 45.27075 0.45263 100.01618 -0.00000000937459532224
17400 95.08632 45.16796 0.45162 100.01385 -0.00000000829830781868
17500 95.08018 45.04986 0.45046 100.00829 -0.00000000759727925015
17600 95.08459 44.96201 0.44959 100.00722 -0.00000000599449379024
17700 95.09029 44.85389 0.44853 100.00203 -0.00000000485782436499
17800 95.09843 44.75366 0.44752 100.00393 0.00000000032311220366
17900 95.09565 44.62786 0.44628 100.00056 -0.00000000087051432729
18000 95.09719 44.50229 0.44499 100.00700 -0.00000000713438197408
18100 95.09060 44.39768 0.44394 100.00851 -0.00000000886443274339
18200 95.10873 44.41699 0.44409 100.01791 -0.00000001161546236972
18300 95.11404 44.33677 0.44324 100.02989 -0.00000000618406659214
18400 95.11076 44.21257 0.44199 100.03060 -0.00000000582712544883
18500 95.11691 44.07156 0.44054 100.03903 -0.00000000483267825757
18600 95.13577 44.22693 0.44205 100.04919 -0.00000000713728809387
18700 95.13686 44.09516 0.44072 100.05144 -0.00000001083574829863
18800 95.13677 43.96060 0.43937 100.05261 -0.00000002329786497057
18900 95.13294 43.81994 0.43797 100.05296 -0.00000001636082203049
19000 95.12789 43.66279 0.43643 100.04600 -0.00000001763520884879
19100 95.12864 43.54568 0.43525 100.04723 -0.00000001524430359723
19200 95.12315 43.40357 0.43383 100.04682 -0.00000002203147175805
19300 95.12750 43.29641 0.43275 100.04959 -0.00000002541231225450
19400 95.11616 43.15858 0.43139 100.04557 -0.00000002133281640226
19500 95.12278 43.07968 0.43059 100.04903 -0.00000002796365805580
19600 95.11519 42.93395 0.42915 100.04316 -0.00000002056967929320
19700 95.11492 42.82812 0.42807 100.04929 -0.00000003764816369767
19800 95.10363 42.68506 0.42667 100.04222 -0.00000002985999714156
19900 95.10358 42.55472 0.42536 100.04407 -0.00000002751804117906
20000 95.10378 42.55629 0.42537 100.04490 -0.00000004056661850882
20100 95.12061 42.94927 0.42931 100.04358 -0.00000003482931276722
20200 95.12256 42.87157 0.42852 100.04475 -0.00000002330063608724
20300 95.11985 42.75791 0.42741 100.03901 -0.00000001836033192149
20400 95.12193 42.63210 0.42616 100.03858 -0.00000003150966421117
20500 95.12094 42.50887 0.42492 100.04000 -0.00000001962850149084
20600 95.11923 42.38609 0.42373 100.03175 -0.00000002259042730657
20700 95.11028 42.27235 0.42263 100.02329 -0.00000002629010964483
20800 95.10950 42.19514 0.42185 100.02452 -0.00000002274600774399
20900 95.11616 42.13268 0.42120 100.02995 -0.00000001212012534779
21000 95.12580 42.12359 0.42109 100.03548 -0.00000001405367555662
21100 95.11986 42.04149 0.42026 100.03682 -0.00000001660036019757
21200 95.12070 42.01081 0.41995 100.03788 -0.00000002554362765750
21300 95.12178 41.97752 0.41963 100.03512 -0.00000002870780946296
21400 95.12612 41.95286 0.41939 100.03238 -0.00000003259911096620
21500 95.11322 41.87903 0.41869 100.02340 -0.00000002591539782770
21600 95.11684 41.83735 0.41827 100.02417 -0.00000002721854031051
21700 95.12619 41.77121 0.41759 100.02954 -0.00000002218266104137
21800 95.12924 41.68422 0.41672 100.02908 -0.00000002764966211544
21900 95.13241 41.64158 0.41626 100.03662 -0.00000002898019602071
22000 95.12680 41.57158 0.41558 100.03164 -0.00000003461370567948
22100 95.13043 41.52665 0.41511 100.03860 -0.00000004394975405830
22200 95.12802 41.50021 0.41485 100.03640 -0.00000004503067430051
22300 95.12739 41.39619 0.41382 100.03534 -0.00000004876582693214
22400 95.11891 41.28869 0.41276 100.02960 -0.00000005211928311155
22500 95.11443 41.20322 0.41194 100.02191 -0.00000004614583559714
22600 95.11945 41.14374 0.41134 100.02310 -0.00000005149600212917
22700 95.12250 41.07690 0.41068 100.02198 -0.00000005706537109518
22800 95.11983 41.02819 0.41016 100.02965 -0.00000005411536818656
22900 95.12090 41.03666 0.41025 100.02830 -0.00000004461568181569
23000 95.10923 41.02287 0.41015 100.01800 -0.00000004495549177364
23100 95.11240 41.07145 0.41062 100.02212 -0.00000004646107498729
23200 95.10803 41.10985 0.41101 100.02134 -0.00000004283428722829
23300 95.11793 41.22595 0.41215 100.02747 -0.00000004314534862715
23400 95.11992 41.33532 0.41323 100.03064 -0.00000004689182020456
23500 95.10975 41.38874 0.41380 100.02221 -0.00000004982410928278
23600 95.11786 41.50409 0.41492 100.02953 -0.00000004327221603262
23700 95.11838 41.59641 0.41585 100.02679 -0.00000004511138484986
23800 95.12012 41.65826 0.41646 100.02878 -0.00000005050528528727
23900 95.11387 41.68803 0.41678 100.02498 -0.00000005234049638148
24000 95.10746 41.67438 0.41664 100.02500 -0.00000005595624230637
24100 95.10785 41.65741 0.41649 100.02108 -0.00000005038567962856
24200 95.11000 41.66375 0.41654 100.02426 -0.00000005341158981764
24300 95.10799 41.64646 0.41635 100.02798 -0.00000004493626448721
24400 95.09890 41.59842 0.41590 100.02139 -0.00000003991726060804
24500 95.09378 41.60130 0.41594 100.01710 -0.00000003223224354088
24600 95.09346 41.61829 0.41612 100.01602 -0.00000004336456527199
24700 95.08978 41.61974 0.41614 100.01498 -0.00000004223198857289
24800 95.08965 41.63678 0.41631 100.01294 -0.00000004353040594651
24900 95.09506 41.68745 0.41682 100.01313 -0.00000004225548622117
25000 95.08718 41.70787 0.41702 100.01308 -0.00000005129332691922
25100 95.08686 41.76193 0.41759 100.00669 -0.00000005283184378868
25200 95.08733 41.81488 0.41814 100.00179 -0.00000005577262385259
25300 95.09143 41.88028 0.41877 100.00715 -0.00000005306368677793
25400 95.09405 41.98204 0.41978 100.01067 -0.00000005721788198798
25500 95.10029 42.11139 0.42106 100.01333 -0.00000005634649369313
25600 95.09405 42.21043 0.42206 100.01074 -0.00000005186361562437
25700 95.09497 42.30474 0.42302 100.00677 -0.00000004486915372581
25800 95.10052 42.47681 0.42473 100.00864 -0.00000004670526010386
25900 95.10841 42.74651 0.42739 100.01703 -0.00000004370573236656
26000 95.09990 42.87089 0.42863 100.01815 -0.00000004169398692966
26100 95.09102 42.97090 0.42964 100.01644 -0.00000004105542217303
26200 95.08534 43.07888 0.43073 100.01477 -0.00000005306318939802
26300 95.08532 43.20948 0.43203 100.01483 -0.00000005010930692606
26400 95.09057 43.37236 0.43363 100.02167 -0.00000003563929595884
26500 95.08605 43.51076 0.43500 100.02381 -0.00000003069397536137
26600 95.08930 43.69064 0.43679 100.02692 -0.00000004385147889252
26700 95.09306 43.88399 0.43871 100.02876 -0.00000006000514929383
26800 95.09345 44.07827 0.44067 100.02496 -0.00000007491956210970
26900 95.09479 44.25955 0.44247 100.02911 -0.00000006414929742959
27000 95.09574 44.45525 0.44442 100.03019 -0.00000004105920936581
27100 95.10527 44.68755 0.44672 100.03472 -0.00000003571150841708
27200 95.09727 44.86806 0.44854 100.03044 -0.00000003562125527878
27300 95.10074 45.05857 0.45043 100.03509 -0.00000001932189519493
27400 95.10515 45.25636 0.45239 100.03891 -0.00000000605003691589
27500 95.10450 45.45047 0.45434 100.03684 0.00000000000665778543
27600 95.09839 45.61732 0.45603 100.03159 0.00000001392305648551
27700 95.09658 45.81008 0.45797 100.02903 0.00000000792954324424
27800 95.10610 46.04757 0.46032 100.03374 0.00000001015582284936
27900 95.10197 46.21271 0.46197 100.03380 0.00000000944613987031
28000 95.09603 46.35990 0.46347 100.02836 -0.00000000785432519024
28100 95.10651 46.55456 0.46538 100.03488 -0.00000000778860709261
28200 95.10691 46.71055 0.46694 100.03645 0.00000000566528512991
28300 95.10964 46.87794 0.46863 100.03230 0.00000000648823572647
28400 95.11036 47.04205 0.47025 100.03581 0.00000000585487214266
28500 95.10974 47.21873 0.47201 100.03832 0.00000001752851375159
28600 95.11012 47.40417 0.47385 100.04038 0.00000003141638416082
28700 95.11159 47.61713 0.47597 100.04213 0.00000004423752386629
28800 95.11450 47.82596 0.47804 100.04625 0.00000004844777379276
28900 95.10973 47.99491 0.47976 100.03882 0.00000005250149825997
29000 95.11695 48.20196 0.48182 100.04190 0.00000004155037913733
29100 95.11677 48.40312 0.48382 100.04292 0.00000004952283916282
29200 95.11341 48.59449 0.48574 100.04284 0.00000004317085000594
29300 95.11268 48.79466 0.48774 100.04215 0.00000004383835516819
29400 95.10895 48.99413 0.48971 100.04779 0.00000005332100982969
29500 95.11776 49.21108 0.49186 100.05193 0.00000006826828524709
29600 95.11945 49.40174 0.49375 100.05463 0.00000008709659482520
29700 95.12106 49.62265 0.49594 100.05865 0.00000009104156362127
29800 95.11915 49.80609 0.49777 100.05926 0.00000010020688279155
29900 95.12131 50.01809 0.49986 100.06371 0.00000008737655576851
30000 95.11745 50.20633 0.50175 100.06283 0.00000007333779450391
30100 95.12357 50.42705 0.50393 100.06801 0.00000007637915899750
30200 95.12033 50.62815 0.50594 100.06722 0.00000007323170336804
30300 95.12290 50.83103 0.50797 100.06772 0.00000007290260128912
30400 95.11699 50.99749 0.50965 100.06441 0.00000005797861035717
30500 95.12067 51.14420 0.51111 100.06489 0.00000006402829200169
30600 95.11459 51.25580 0.51220 100.06954 0.00000007969675408503
30700 95.10976 51.36462 0.51330 100.06707 0.00000007255628986513
30800 95.11246 51.51385 0.51477 100.07182 0.00000007919691569214
30900 95.10772 51.65289 0.51619 100.06479 0.00000009534502254382
31000 95.10635 51.81630 0.51784 100.06213 0.00000010185923571271
31100 95.10777 51.98228 0.51948 100.06592 0.00000010999868749195
31200 95.11213 52.12296 0.52087 100.06891 0.00000011560440782432
31300 95.11837 52.24773 0.52210 100.07278 0.00000012185814313170
31400 95.11337 52.31215 0.52275 100.07073 0.00000011340770100787
31500 95.11884 52.43589 0.52398 100.07187 0.00000010175794074030
31600 95.11274 52.48989 0.52455 100.06728 0.00000009237874820656
31700 95.12072 52.57504 0.52538 100.07104 0.00000008843303334061
31800 95.12494 52.64550 0.52610 100.06739 0.00000009836345071790
31900 95.12882 52.71461 0.52677 100.07082 0.00000011097961305495
32000 95.12202 52.76720 0.52730 100.07003 0.00000010570097686013
32100 95.11584 52.83006 0.52795 100.06558 0.00000009951160251376
32200 95.11387 52.92521 0.52891 100.06407 0.00000010547132944794
32300 95.11654 53.02446 0.52990 100.06437 0.00000010230102986952
32400 95.12011 53.10917 0.53074 100.06698 0.00000010302706954235
32500 95.11261 52.98591 0.52953 100.06305 0.00000009006755874452
32600 95.11331 52.89923 0.52863 100.06923 0.00000010311097042859
32700 95.10656 52.79982 0.52766 100.06425 0.00000010087990887087
32800 95.10663 52.69780 0.52666 100.06095 0.00000009415663271284
32900 95.10822 52.58944 0.52558 100.06018 0.00000009746110407605
33000 95.10786 52.48476 0.52452 100.06179 0.00000009773160059012
33100 95.10851 52.39092 0.52359 100.06172 0.00000008923126415539
33200 95.10440 52.27348 0.52241 100.06178 0.00000008342937007910
33300 95.10500 52.20439 0.52172 100.06147 0.00000007421801484497
33400 95.10331 52.10507 0.52074 100.06009 0.00000007147904312887
33500 95.10201 52.01664 0.51988 100.05603 0.00000006658979145868
33600 95.09789 51.92359 0.51897 100.05164 0.00000006613003478151
33700 95.10240 51.85748 0.51828 100.05623 0.00000006526961726649
33800 95.09643 51.77746 0.51749 100.05536 0.00000004426907196375
33900 95.10228 51.72665 0.51698 100.05619 0.00000004512558859915
34000 95.10442 51.67318 0.51643 100.05903 0.00000004937938768990
34100 95.09959 51.62498 0.51596 100.05710 0.00000005025778904155
34200 95.09726 51.56851 0.51540 100.05520 0.00000005724046303612
34300 95.09865 51.51675 0.51489 100.05475 0.00000005505122402383
34400 95.10372 51.49406 0.51464 100.05762 0.00000004585978530258
34500 95.10594 51.45598 0.51425 100.06014 0.00000004403325704061
34600 95.10713 51.41642 0.51384 100.06240 0.00000006224838244862
34700 95.10411 51.37212 0.51342 100.05818 0.00000004209122295151
34800 95.09997 51.31218 0.51284 100.05583 0.00000004304585132786
34900 95.09989 51.28074 0.51253 100.05344 0.00000004350027893452
35000 95.10421 51.26860 0.51241 100.05346 0.00000003969307016405
35100 95.10338 51.25633 0.51229 100.05368 0.00000003639855350457
35200 95.09618 51.23724 0.51213 100.04821 0.00000003124151959355
35300 95.09411 51.23252 0.51208 100.04765 0.00000003461075692712
35400 95.10019 51.24647 0.51219 100.05393 0.00000003547090443590
35500 95.09602 51.23321 0.51206 100.05344 0.00000003730563946647
35600 95.09352 51.21368 0.51185 100.05548 0.00000005117704660051
35700 95.09458 51.17801 0.51149 100.05672 0.00000004045151769105
35800 95.09048 51.15529 0.51127 100.05595 0.00000006328780699505
35900 95.08599 51.13596 0.51107 100.05641 0.00000007057357720441
36000 95.08051 51.11703 0.51091 100.05106 0.00000006938452656868
36100 95.07987 51.11186 0.51086 100.05039 0.00000006482849101985
36200 95.08239 51.12199 0.51096 100.05058 0.00000005798421653935
36300 95.08312 51.14038 0.51114 100.05226 0.00000006399616836461
36400 95.08390 51.15327 0.51126 100.05324 0.00000006674839880816
36500 95.08365 51.16879 0.51140 100.05578 0.00000005042174677783
36600 95.08552 51.20484 0.51175 100.05869 0.00000004965099975607
36700 95.08192 51.22388 0.51196 100.05444 0.00000005109273359949
36800 95.08721 51.28225 0.51253 100.05628 0.00000006555919185303
36900 95.08838 51.33434 0.51305 100.05634 0.00000006548491882086
37000 95.09202 51.41559 0.51386 100.05795 0.00000007971212312441
37100 95.09099 51.49083 0.51462 100.05633 0.00000006728720336469
37200 95.08138 51.54157 0.51516 100.04989 0.00000007088195985716
37300 95.07862 51.48742 0.51463 100.04828 0.00000007561091308617
37400 95.07686 51.39082 0.51365 100.04976 0.00000007712635152757
37500 95.07317 51.28746 0.51263 100.04763 0.00000006644120986721
37600 95.06930 51.18831 0.51166 100.04372 0.00000003415556903974
37700 95.06468 51.08673 0.51068 100.03756 0.00000003590358232941
37800 95.06401 50.99195 0.50972 100.03873 0.00000003143912152836
37900 95.06517 50.94032 0.50920 100.03918 0.00000003020213057425
38000 95.06094 50.86249 0.50843 100.03853 0.00000003591217989651
38100 95.06133 50.79103 0.50771 100.04021 0.00000004509884377057
38200 95.06256 50.74048 0.50719 100.04298 0.00000003194467979029
38300 95.05905 50.66259 0.50644 100.03752 0.00000004912932638490
38400 95.05641 50.58556 0.50565 100.04102 0.00000004500507344574
38500 95.05770 50.52915 0.50507 100.04470 0.00000004309218581966
38600 95.06072 50.48351 0.50461 100.04443 0.00000005210043951820
38700 95.06346 50.43859 0.50418 100.04067 0.00000005604264430303
38800 95.06141 50.39513 0.50373 100.04428 0.00000009044994442320
38900 95.06734 50.36866 0.50345 100.04627 0.00000010310337472674
39000 95.06732 50.34512 0.50322 100.04554 0.00000009238004139434
39100 95.06958 50.32746 0.50305 100.04560 0.00000008477380220029
39200 95.07188 50.32385 0.50302 100.04436 0.00000008797115214065
39300 95.06470 50.31235 0.50293 100.03885 0.00000007466418594504
39400 95.07064 50.35005 0.50328 100.04437 0.00000009980833937107
39500 95.06923 50.34346 0.50321 100.04382 0.00000011217265694086
39600 95.07172 50.36312 0.50341 100.04477 0.00000012411128835765
39700 95.06965 50.37096 0.50348 100.04652 0.00000011182036985247
39800 95.07605 50.41989 0.50393 100.05296 0.00000011589624193675
39900 95.07559 50.43513 0.50408 100.05346 0.00000010619687174085
40000 95.07352 50.44640 0.50420 100.05305 0.00000010280702156251
40100 95.07611 50.46015 0.50433 100.05354 0.00000008571493026466
40200 95.07740 50.48422 0.50457 100.05331 0.00000009674145928784
40300 95.07969 50.51545 0.50488 100.05524 0.00000008553834618397
40400 95.08294 50.56406 0.50534 100.05854 0.00000009117644594880
40500 95.08228 50.55047 0.50522 100.05726 0.00000008132973761121
40600 95.08857 50.50979 0.50478 100.06261 0.00000008763205983087
40700 95.09357 50.45025 0.50419 100.06206 0.00000006491534776387
40800 95.08850 50.37643 0.50347 100.05860 0.00000007438668347959
40900 95.08795 50.29723 0.50269 100.05633 0.00000008313987365227
41000 95.09019 50.23468 0.50207 100.05537 0.00000008681612939654
41100 95.09600 50.19709 0.50168 100.05742 0.00000009254381438950
41200 95.09865 50.12382 0.50095 100.05823 0.00000008671631235302
41300 95.09799 50.04954 0.50020 100.05891 0.00000006750014591717
41400 95.10050 50.02151 0.49991 100.06080 0.00000005555281745728
41500 95.09543 49.95216 0.49922 100.06039 0.00000005882498044230
41600 95.09829 49.89946 0.49869 100.06183 0.00000004749642101842
41700 95.09045 49.84220 0.49812 100.06065 0.00000005765701871496
41800 95.09080 49.80940 0.49780 100.06000 0.00000004578823364909
41900 95.08706 49.76966 0.49741 100.05757 0.00000005145935233486
42000 95.08364 49.73450 0.49707 100.05483 0.00000004441413636869
42100 95.08247 49.70139 0.49675 100.05349 0.00000003822992056257
42200 95.08014 49.65910 0.49634 100.04960 0.00000005547797599093
42300 95.08035 49.63885 0.49614 100.04920 0.00000005703171268578
42400 95.08194 49.61200 0.49587 100.05118 0.00000005748724163368
42500 95.08522 49.56628 0.49540 100.05325 0.00000006028867716168
42600 95.08352 49.51132 0.49486 100.05131 0.00000004962382860185
42700 95.08717 49.46126 0.49435 100.05375 0.00000003880456489469
42800 95.08235 49.38575 0.49360 100.05250 0.00000003085722966034
42900 95.07982 49.31768 0.49292 100.05149 0.00000002791772857336
43000 95.08649 49.29336 0.49267 100.05295 0.00000002537790777524
43100 95.08336 49.23929 0.49213 100.05343 0.00000004355038640824
43200 95.08067 49.18006 0.49154 100.05248 0.00000003737358866829
43300 95.08000 49.14289 0.49117 100.05273 0.00000004018173171971
43400 95.08138 49.11352 0.49087 100.05378 0.00000004630719985244
43500 95.08848 49.13890 0.49111 100.05766 0.00000003382093893833
43600 95.08820 49.09747 0.49070 100.05500 0.00000002743266946936
43700 95.09331 49.08434 0.49056 100.05703 0.00000001876896504882
43800 95.09690 49.08594 0.49057 100.05986 0.00000000928675802925
43900 95.09042 49.04917 0.49021 100.05724 0.00000001515031300414
44000 95.09301 49.04268 0.49014 100.05855 0.00000003234282530684
44100 95.09192 49.02782 0.49000 100.05639 0.00000001579440578325
44200 95.08916 49.02439 0.48997 100.05532 0.00000001123699178152
44300 95.08736 49.01026 0.48984 100.05377 -0.00000001625679857398
44400 95.08901 49.01376 0.48986 100.05624 -0.00000000237368169564
44500 95.09269 49.02847 0.49000 100.05773 -0.00000001194465681920
44600 95.09090 49.03555 0.49007 100.05917 -0.00000001722304432406
44700 95.09001 49.06192 0.49032 100.06174 -0.00000000712049086360
44800 95.08431 49.08724 0.49059 100.05728 -0.00000002521205288986
44900 95.08368 49.12059 0.49093 100.05657 -0.00000001048192643793
45000 95.08727 49.18771 0.49158 100.05991 0.00000000043417003326
45100 95.08937 49.23484 0.49203 100.06450 -0.00000001330271715005
45200 95.09016 49.28019 0.49247 100.06644 -0.00000002968720735907
45300 95.08828 49.32865 0.49297 100.06389 -0.00000003463423325911
45400 95.08609 49.36536 0.49334 100.06401 -0.00000004334305714337
45500 95.08607 49.41975 0.49389 100.06286 -0.00000004266012609833
45600 95.08161 49.45320 0.49424 100.05976 -0.00000005860754725973
45700 95.07914 49.47983 0.49452 100.05705 -0.00000006552374287594
45800 95.07172 49.50564 0.49481 100.04998 -0.00000006689032971963
45900 95.07113 49.53906 0.49515 100.04791 -0.00000007058128659310
46000 95.07043 49.58609 0.49563 100.04630 -0.00000007454979567001
46100 95.07548 49.66518 0.49642 100.04729 -0.00000005755391896400
46200 95.07474 49.71604 0.49693 100.04677 -0.00000006846045152997
46300 95.07455 49.77063 0.49748 100.04629 -0.00000007309530047905
46400 95.07654 49.83806 0.49813 100.04978 -0.00000006951160003155
46500 95.07714 49.89458 0.49871 100.04763 -0.00000008549557151127
46600 95.07373 49.96451 0.49942 100.04517 -0.00000007538997692791
46700 95.07409 50.03728 0.50014 100.04681 -0.00000010093046398651
46800 95.07294 50.07253 0.50050 100.04500 -0.00000012501384105690
46900 95.07152 50.04526 0.50022 100.04595 -0.00000011991048864957
47000 95.06826 50.02496 0.50003 100.04409 -0.00000011681132860986
47100 95.06418 49.98375 0.49963 100.04240 -0.00000012345016386917
47200 95.05873 49.94497 0.49925 100.04011 -0.00000013431183276680
47300 95.06107 49.91653 0.49896 100.04148 -0.00000013145369592849
47400 95.05587 49.86622 0.49846 100.04055 -0.00000012247764402673
47500 95.05636 49.81993 0.49799 100.04181 -0.00000011364928553803
47600 95.05210 49.76347 0.49743 100.04197 -0.00000010877685951982
47700 95.05218 49.72708 0.49706 100.04308 -0.00000011150621048728
47800 95.05405 49.69591 0.49673 100.04657 -0.00000011853037307219
47900 95.05441 49.65732 0.49634 100.04616 -0.00000014010463189607
48000 95.04853 49.61358 0.49592 100.04444 -0.00000013617701455360
48100 95.04502 49.58484 0.49563 100.04358 -0.00000015331259106688
48200 95.03798 49.54330 0.49524 100.03896 -0.00000016818260206719
48300 95.03989 49.47923 0.49459 100.04089 -0.00000016048792872425
48400 95.04071 49.41287 0.49393 100.04050 -0.00000016743964437183
48500 95.04234 49.35564 0.49335 100.04148 -0.00000017283280584479
48600 95.04164 49.29160 0.49271 100.04152 -0.00000017484575920435
48700 95.04268 49.23558 0.49214 100.04292 -0.00000016774301059286
48800 95.04247 49.16819 0.49146 100.04428 -0.00000014682105842212
48900 95.04302 49.09841 0.49076 100.04583 -0.00000015487193394392
49000 95.04015 49.03802 0.49016 100.04492 -0.00000015694449473358
49100 95.03644 48.96175 0.48940 100.04532 -0.00000015047531576329
49200 95.03606 48.89011 0.48867 100.04636 -0.00000015705496281271
49300 95.03622 48.83618 0.48814 100.04452 -0.00000016860699503241
49400 95.03438 48.77796 0.48756 100.04506 -0.00000016066389463276
49500 95.03225 48.73482 0.48714 100.04339 -0.00000016849858752721
49600 95.02923 48.66113 0.48640 100.04272 -0.00000019520997796008
49700 95.03032 48.60681 0.48585 100.04421 -0.00000017982778643955
49800 95.03041 48.56078 0.48540 100.04345 -0.00000016469250141427
49900 95.02928 48.51775 0.48497 100.04359 -0.00000017819909459149
50000 95.02920 48.48311 0.48463 100.04176 -0.00000018288861980409
50100 95.02979 48.46910 0.48448 100.04361 -0.00000017486794234856
50200 95.02452 48.44276 0.48423 100.04048 -0.00000018997234008111
50300 95.02491 48.42659 0.48408 100.03883 -0.00000019601053935503
50400 95.02125 48.40916 0.48392 100.03569 -0.00000020544445789028
50500 95.01759 48.39068 0.48375 100.03182 -0.00000021229417512814
50600 95.01437 48.38257 0.48367 100.03140 -0.00000021716243026049
50700 95.01391 48.37188 0.48357 100.03012 -0.00000020455881610815
50800 95.01229 48.35524 0.48340 100.03215 -0.00000019200290779509
50900 95.01213 48.34524 0.48330 100.03240 -0.00000017564435950135
51000 95.01151 48.31974 0.48305 100.03018 -0.00000018616054831000
51100 95.00501 48.25013 0.48236 100.02937 -0.00000016902960453535
51200 95.00603 48.18599 0.48172 100.02979 -0.00000017692975262662
51300 95.00409 48.12463 0.48112 100.02620 -0.00000020008201317978
51400 95.00453 48.06803 0.48056 100.02595 -0.00000020840614212148
51500 95.00824 48.02760 0.48013 100.03035 -0.00000021701739427726
51600 95.01218 48.00206 0.47987 100.03176 -0.00000022693444634569
51700 95.01254 47.95259 0.47937 100.03215 -0.00000022265869148441
51800 95.00855 47.91167 0.47896 100.03174 -0.00000021419542406420
51900 95.01102 47.88734 0.47872 100.03170 -0.00000022058168269723
52000 95.01141 47.86913 0.47854 100.03140 -0.00000021127013383193
52100 95.01182 47.84810 0.47833 100.03065 -0.00000020121570543097
52200 95.01015 47.83299 0.47818 100.03123 -0.00000019190996880525
52300 95.01615 47.84415 0.47827 100.03526 -0.00000020695178903907
52400 95.01761 47.84335 0.47827 100.03387 -0.00000020551765089749
52500 95.01424 47.85322 0.47837 100.03446 -0.00000021258073701347
52600 95.01285 47.86224 0.47846 100.03359 -0.00000021209280021139
52700 95.01161 47.87208 0.47857 100.03230 -0.00000020129923683498
52800 95.01309 47.89980 0.47884 100.03373 -0.00000021221737966926
52900 95.01758 47.95369 0.47937 100.03514 -0.00000022574682390086
53000 95.01859 47.92913 0.47912 100.03564 -0.00000022394031873318
53100 95.01924 47.87495 0.47857 100.03650 -0.00000020740724693269
53200 95.01922 47.81732 0.47801 100.03466 -0.00000022027914781120
53300 95.01367 47.75871 0.47744 100.03152 -0.00000021115236137348
53400 95.01704 47.71404 0.47698 100.03273 -0.00000016952324699560
53500 95.01339 47.65987 0.47645 100.03060 -0.00000016060451457633
53600 95.01764 47.67397 0.47659 100.03194 -0.00000012949274008633
53700 95.01793 47.63600 0.47620 100.03331 -0.00000014860174246678
53800 95.01631 47.59809 0.47582 100.03398 -0.00000013913181362568
53900 95.01500 47.56218 0.47545 100.03544 -0.00000017492281756404
54000 95.01619 47.53236 0.47516 100.03526 -0.00000020384837995380
54100 95.01816 47.49624 0.47479 100.03530 -0.00000017503434435184
54200 95.01939 47.45214 0.47434 100.03751 -0.00000020379485476951
54300 95.01612 47.40131 0.47384 100.03744 -0.00000021901437463612
54400 95.01347 47.35102 0.47334 100.03570 -0.00000020541479273106
54500 95.01501 47.31665 0.47300 100.03587 -0.00000021337100264418
54600 95.01525 47.27258 0.47256 100.03478 -0.00000021571477049065
54700 95.01267 47.23559 0.47220 100.03243 -0.00000021677301731415
54800 95.01280 47.20098 0.47186 100.03073 -0.00000024471596304920
54900 95.01237 47.16132 0.47147 100.03049 -0.00000024345791871383
55000 95.01283 47.12066 0.47107 100.02898 -0.00000025907489487054
55100 95.00987 47.06840 0.47056 100.02593 -0.00000023577592145330
55200 95.00921 47.01707 0.47005 100.02605 -0.00000024385029462337
55300 95.00867 46.96730 0.46955 100.02633 -0.00000023736643584016
55400 95.01175 46.93015 0.46917 100.02742 -0.00000024695322764501
55500 95.00994 46.87416 0.46862 100.02600 -0.00000023955804095976
55600 95.00874 46.82801 0.46817 100.02379 -0.00000026810059949867
55700 95.00936 46.78544 0.46773 100.02607 -0.00000028162363463480
55800 95.00802 46.74916 0.46738 100.02414 -0.00000027673528535388
55900 95.00866 46.71732 0.46706 100.02458 -0.00000024938095322113
56000 95.00841 46.70444 0.46693 100.02500 -0.00000020159639291251
56100 95.00952 46.70321 0.46692 100.02399 -0.00000018092932663194
56200 95.01013 46.70841 0.46697 100.02504 -0.00000015449789003696
56300 95.01078 46.71022 0.46698 100.02616 -0.00000019112699334300
56400 95.00835 46.70639 0.46695 100.02521 -0.00000020692502999964
56500 95.00606 46.70720 0.46697 100.02278 -0.00000024031304945993
56600 95.00313 46.70555 0.46696 100.02115 -0.00000026086495097388
56700 95.00607 46.71945 0.46709 100.02212 -0.00000025986585683313
56800 95.00413 46.71903 0.46708 100.02255 -0.00000028306089205898
56900 95.00311 46.72524 0.46715 100.02262 -0.00000029469198636889
57000 95.00594 46.74821 0.46736 100.02640 -0.00000032282642337123
57100 95.00903 46.76727 0.46754 100.02846 -0.00000031852258786103
57200 95.01152 46.78077 0.46767 100.03030 -0.00000033716068514877
57300 95.01408 46.81484 0.46800 100.03180 -0.00000032070725808353
57400 95.01582 46.84304 0.46826 100.03547 -0.00000031795357813280
57500 95.01678 46.87072 0.46854 100.03670 -0.00000031190732130426
57600 95.01504 46.88096 0.46866 100.03274 -0.00000029748400720564
57700 95.01315 46.90010 0.46885 100.03180 -0.00000033081965966630
57800 95.01060 46.92867 0.46914 100.03059 -0.00000034115502955956
57900 95.01004 46.95431 0.46940 100.02946 -0.00000034417083583094
58000 95.01011 46.98379 0.46970 100.02997 -0.00000035561333788792
58100 95.00657 47.00728 0.46994 100.02790 -0.00000035382409890872
58200 95.00636 47.03898 0.47026 100.02833 -0.00000032594560650523
58300 95.00555 47.06290 0.47050 100.02659 -0.00000037726248081071
58400 95.00509 47.09242 0.47080 100.02551 -0.00000037430023525076
58500 95.00626 47.11625 0.47104 100.02581 -0.00000033695745571549
58600 95.00660 47.14669 0.47134 100.02609 -0.00000035616813676143
58700 95.00326 47.17467 0.47164 100.02353 -0.00000036258885671714
58800 95.00101 47.20643 0.47196 100.02294 -0.00000036814860493450
58900 95.00178 47.24207 0.47231 100.02290 -0.00000035052157443261
59000 95.00293 47.25109 0.47240 100.02308 -0.00000030470819467610
59100 95.00867 47.27722 0.47265 100.02577 -0.00000031381462406443
59200 95.01333 47.28510 0.47271 100.02922 -0.00000030144517637609
59300 95.01257 47.28526 0.47271 100.03099 -0.00000029608547436055
59400 95.01079 47.29230 0.47278 100.02926 -0.00000029416946034644
59500 95.00752 47.29447 0.47281 100.02773 -0.00000031066473127339
59600 95.00812 47.30717 0.47293 100.03013 -0.00000031996335536633
59700 95.01386 47.36888 0.47354 100.03231 -0.00000033660081300013
59800 95.01220 47.38452 0.47369 100.03206 -0.00000033434700696944
59900 95.01085 47.40278 0.47388 100.03179 -0.00000034373301360802
60000 95.01038 47.41321 0.47399 100.03077 -0.00000035408826448702
60100 95.00970 47.43018 0.47416 100.02990 -0.00000034280076732784
60200 95.01310 47.46248 0.47448 100.03088 -0.00000035091996153369
60300 95.01323 47.48859 0.47473 100.03194 -0.00000035820266930386
60400 95.01466 47.49496 0.47479 100.03435 -0.00000035854142765857
60500 95.01501 47.48071 0.47464 100.03554 -0.00000035270856812986
60600 95.01501 47.42924 0.47413 100.03526 -0.00000036329674202307
60700 95.01667 47.40418 0.47387 100.03582 -0.00000033850906788757
60800 95.01181 47.36450 0.47349 100.03242 -0.00000032723942666735
60900 95.01195 47.33198 0.47317 100.03253 -0.00000036846024187298
61000 95.01424 47.30343 0.47288 100.03364 -0.00000039129435691621
61100 95.01299 47.25855 0.47243 100.03203 -0.00000036576493300799
61200 95.00750 47.20030 0.47187 100.02897 -0.00000037357172288921
61300 95.00583 47.15277 0.47139 100.02974 -0.00000036212948373304
61400 95.00457 47.10257 0.47088 100.03011 -0.00000034485803723783
61500 95.00488 47.05556 0.47041 100.03021 -0.00000034244421698304
61600 95.00626 47.05240 0.47038 100.03060 -0.00000032384419057507
61700 95.00396 47.00965 0.46996 100.02896 -0.00000033559126677574
61800 94.99947 46.96471 0.46952 100.02694 -0.00000035378645435458
61900 94.99731 46.92098 0.46909 100.02491 -0.00000032571704622342
62000 95.00015 46.92507 0.46912 100.02795 -0.00000032689639084538
62100 94.99691 46.89083 0.46879 100.02556 -0.00000030838587861126
62200 94.99485 46.85962 0.46848 100.02378 -0.00000028983835420604
62300 94.99632 46.83565 0.46824 100.02475 -0.00000030174570753161
62400 94.99366 46.80102 0.46790 100.02383 -0.00000028311542621395
62500 94.99423 46.78382 0.46773 100.02376 -0.00000029634637854770
62600 94.99311 46.76533 0.46755 100.02249 -0.00000032267262639607
62700 94.99543 46.75987 0.46748 100.02474 -0.00000033566178103683
62800 94.99286 46.72846 0.46717 100.02545 -0.00000033485526529375
62900 94.99056 46.69481 0.46684 100.02367 -0.00000034736810050617
63000 94.98911 46.67256 0.46661 100.02413 -0.00000034292907002964
63100 94.99024 46.62961 0.46618 100.02448 -0.00000035513617291372
63200 94.98903 46.57901 0.46567 100.02514 -0.00000035472984905027
63300 94.99111 46.53471 0.46523 100.02551 -0.00000037417184728383
63400 94.99234 46.50174 0.46490 100.02498 -0.00000034742787136111
63500 94.99173 46.45787 0.46447 100.02378 -0.00000034494127021389
63600 94.99293 46.41573 0.46405 100.02280 -0.00000033430598023187
63700 94.99421 46.38076 0.46369 100.02471 -0.00000031069458117372
63800 94.99299 46.33703 0.46324 100.02710 -0.00000031578893100459
63900 94.99025 46.29222 0.46281 100.02468 -0.00000027981852213088
64000 94.99158 46.24966 0.46239 100.02378 -0.00000027594488472005
64100 94.99188 46.21159 0.46201 100.02303 -0.00000026240628159258
64200 94.99206 46.17689 0.46165 100.02486 -0.00000026190947721716
64300 94.99135 46.14157 0.46130 100.02418 -0.00000023969048612571
64400 94.99092 46.10508 0.46094 100.02306 -0.00000023097301493635
64500 94.99187 46.07662 0.46066 100.02260 -0.00000022235587948671
64600 94.99110 46.05502 0.46044 100.02351 -0.00000023991985642624
64700 94.99367 46.03131 0.46021 100.02253 -0.00000024547438925993
64800 94.99666 46.01686 0.46006 100.02466 -0.00000022578755931590
64900 94.99702 46.00036 0.45989 100.02522 -0.00000022507886399126
65000 94.99815 45.99372 0.45982 100.02582 -0.00000018428359283007
65100 94.99767 45.98617 0.45975 100.02505 -0.00000018296837822618
65200 94.99774 45.98233 0.45971 100.02543 -0.00000019918247318174
65300 94.99576 45.97506 0.45964 100.02349 -0.00000018557371816996
65400 94.99811 45.99509 0.45984 100.02372 -0.00000016915417688779
65500 94.99780 46.00934 0.45998 100.02392 -0.00000016222259802134
65600 94.99857 46.02982 0.46018 100.02566 -0.00000013937025755695
65700 94.99908 46.04831 0.46036 100.02584 -0.00000014537965853378
65800 95.00212 46.10384 0.46091 100.02736 -0.00000015944124243106
65900 95.00301 46.12101 0.46109 100.02660 -0.00000018581569349863
66000 95.00058 46.13271 0.46121 100.02608 -0.00000019367205794651
66100 95.00133 46.15218 0.46139 100.02806 -0.00000018418469238668
66200 95.00127 46.17170 0.46158 100.02864 -0.00000020793814314857
66300 95.00065 46.19451 0.46181 100.02876 -0.00000018373366827973
66400 94.99673 46.21733 0.46205 100.02601 -0.00000019919604454799
66500 94.99832 46.25676 0.46245 100.02553 -0.00000020707173575829
66600 94.99895 46.31615 0.46304 100.02602 -0.00000022388905307480
66700 95.00024 46.37934 0.46367 100.02766 -0.00000022717375003367
66800 95.00035 46.43547 0.46423 100.02690 -0.00000023774293111956
66900 95.00354 46.48967 0.46477 100.02667 -0.00000026292879340417
67000 95.00688 46.48202 0.46469 100.02881 -0.00000025522107449660
67100 95.00425 46.43206 0.46420 100.02697 -0.00000024463900416549
67200 94.99949 46.38171 0.46369 100.02644 -0.00000024529639830462
67300 94.99968 46.34509 0.46333 100.02689 -0.00000026222667059983
67400 94.99953 46.31176 0.46300 100.02623 -0.00000025684666127290
67500 94.99819 46.28441 0.46272 100.02698 -0.00000024737699533262
67600 94.99734 46.24961 0.46237 100.02827 -0.00000022527747489676
67700 94.99833 46.24868 0.46235 100.03053 -0.00000020851926763044
67800 94.99868 46.25014 0.46236 100.03087 -0.00000020362960384546
67900 94.99909 46.22908 0.46215 100.03121 -0.00000023031554974295
68000 94.99833 46.20656 0.46192 100.03188 -0.00000022705297908487
68100 94.99764 46.18338 0.46169 100.03150 -0.00000023426642314917
68200 94.99699 46.16598 0.46151 100.03166 -0.00000022323168735738
68300 94.99595 46.15837 0.46145 100.02996 -0.00000021546212991552
68400 94.99699 46.15913 0.46145 100.03110 -0.00000020548534962472
68500 94.99726 46.16260 0.46149 100.02978 -0.00000020759608077014
68600 95.00111 46.16937 0.46154 100.03296 -0.00000021037937614210
68700 95.00226 46.16378 0.46149 100.03274 -0.00000022829295431848
68800 94.99951 46.15407 0.46140 100.03156 -0.00000021987505505194
68900 94.99804 46.15866 0.46145 100.02901 -0.00000021402045291552
69000 94.99893 46.20295 0.46189 100.02932 -0.00000017981097499842
69100 94.99807 46.21036 0.46197 100.02867 -0.00000013815810007145
69200 94.99921 46.22446 0.46211 100.02845 -0.00000014574069950868
69300 94.99963 46.23843 0.46225 100.02993 -0.00000014038254647630
69400 95.00252 46.27355 0.46259 100.03071 -0.00000015791394503140
69500 95.00376 46.28010 0.46266 100.03092 -0.00000014471859088871
69600 95.00033 46.28155 0.46267 100.03139 -0.00000014910045820216
69700 95.00410 46.31328 0.46299 100.03164 -0.00000016728628793317
69800 95.00203 46.32034 0.46306 100.03017 -0.00000018414232982877
69900 95.00330 46.33166 0.46317 100.03097 -0.00000019230967041040
70000 95.00017 46.32762 0.46314 100.03006 -0.00000021595885613124
70100 95.00273 46.34618 0.46331 100.03208 -0.00000024192488012886
70200 95.00186 46.35122 0.46336 100.03195 -0.00000022305712832349
70300 95.00179 46.35830 0.46343 100.03302 -0.00000019667363915232
70400 95.00094 46.35393 0.46339 100.03203 -0.00000019175795529236
70500 95.00063 46.34380 0.46329 100.03193 -0.00000018136439905447
70600 94.99947 46.33133 0.46316 100.03245 -0.00000017255291595575
70700 94.99990 46.32352 0.46309 100.03209 -0.00000017913693994842
70800 94.99593 46.31431 0.46301 100.02864 -0.00000015456271285075
70900 94.99746 46.33021 0.46317 100.02948 -0.00000016214462306152
71000 94.99726 46.34367 0.46331 100.02827 -0.00000015972812406062
71100 94.99704 46.35601 0.46343 100.02800 -0.00000014950715154782
71200 94.99920 46.38423 0.46371 100.02959 -0.00000015771126982145
71300 95.00157 46.40454 0.46391 100.03015 -0.00000017620157422016
71400 95.00038 46.42168 0.46408 100.02943 -0.00000016760530741067
71500 95.00110 46.43929 0.46427 100.02743 -0.00000017431107579569
71600 95.00399 46.46539 0.46452 100.02788 -0.00000016426344018328
71700 95.00114 46.47320 0.46460 100.02805 -0.00000017870875979042
71800 94.99990 46.48767 0.46475 100.02624 -0.00000018224632469810
71900 94.99769 46.49982 0.46488 100.02555 -0.00000021630333435496
72000 95.00025 46.52954 0.46516 100.02889 -0.00000021447822717846
72100 95.00049 46.54611 0.46533 100.02753 -0.00000023560889417240
72200 95.00325 46.57929 0.46566 100.02952 -0.00000022869269855619
72300 95.00397 46.58960 0.46575 100.03051 -0.00000025724578733843
72400 95.00554 46.56799 0.46553 100.03135 -0.00000026805202679725
72500 95.00502 46.53481 0.46520 100.03157 -0.00000025737927700220
72600 95.00422 46.51342 0.46499 100.03072 -0.00000025062814046350
72700 95.00543 46.48464 0.46470 100.03232 -0.00000026323074564516
72800 95.00284 46.44832 0.46434 100.03173 -0.00000025471888420725
72900 95.00090 46.41955 0.46405 100.03200 -0.00000026340389780444
73000 95.00368 46.41243 0.46398 100.03208 -0.00000027094903742864
73100 95.00516 46.38226 0.46367 100.03316 -0.00000028314492794834
73200 95.00642 46.35362 0.46337 100.03523 -0.00000027094755949975
73300 95.00851 46.32985 0.46313 100.03688 -0.00000030440703824297
73400 95.00979 46.30310 0.46286 100.03723 -0.00000027463015328522
73500 95.00875 46.27504 0.46258 100.03590 -0.00000024106685714287
73600 95.01043 46.26486 0.46248 100.03603 -0.00000024862810477089
73700 95.01082 46.23557 0.46219 100.03623 -0.00000025663456426628
73800 95.01025 46.20216 0.46185 100.03631 -0.00000026495933980186
73900 95.01027 46.16977 0.46153 100.03549 -0.00000027416113113077
74000 95.00992 46.13396 0.46118 100.03461 -0.00000026044916268120
74100 95.00859 46.09250 0.46077 100.03413 -0.00000026268919839367
74200 95.00760 46.05808 0.46043 100.03345 -0.00000026710780076655
74300 95.00995 46.03893 0.46023 100.03462 -0.00000023363180190472
74400 95.00889 46.01487 0.45999 100.03347 -0.00000021311887365982
74500 95.01303 46.05101 0.46035 100.03432 -0.00000015208026837854
74600 95.01435 46.11076 0.46094 100.03729 -0.00000013852567093409
74700 95.01687 46.12690 0.46109 100.03987 -0.00000015877682102428
74800 95.01769 46.11798 0.46099 100.04016 -0.00000013093448103518
74900 95.01644 46.11405 0.46096 100.03979 -0.00000010954792628581
75000 95.01693 46.09733 0.46079 100.04056 -0.00000014560359318239
75100 95.01508 46.07495 0.46056 100.04132 -0.00000013033889700864
75200 95.00934 46.04871 0.46031 100.03955 -0.00000013137596255319
75300 95.00691 46.03019 0.46013 100.03827 -0.00000012122288239880
75400 95.00663 46.01902 0.46001 100.03833 -0.00000010577926445876
75500 95.00495 46.01072 0.45994 100.03713 -0.00000016034656624697
75600 95.00176 45.99520 0.45978 100.03713 -0.00000016254538337535
75700 95.00160 45.98728 0.45970 100.03705 -0.00000015383160700821
75800 95.00192 45.97685 0.45960 100.03731 -0.00000013793656705730
75900 95.00339 45.97250 0.45955 100.03755 -0.00000007360831943970
76000 95.00419 45.96311 0.45945 100.03853 -0.00000007861715545232
76100 95.00486 45.94949 0.45932 100.03825 -0.00000007607093266415
76200 95.00765 45.95132 0.45933 100.04018 -0.00000005417872728231
76300 95.00924 45.95619 0.45937 100.04127 -0.00000005732844954309
76400 95.00959 45.95722 0.45938 100.04124 -0.00000005801623359503
76500 95.00836 45.95186 0.45933 100.04041 -0.00000006393424456519
76600 95.00490 45.94371 0.45927 100.03698 -0.00000010182414200699
76700 95.00499 45.94676 0.45929 100.03823 -0.00000008757638170209
76800 95.00561 45.95072 0.45933 100.03882 -0.00000012057025600143
76900 95.00546 45.94830 0.45931 100.03871 -0.00000013423483835595
77000 95.00727 45.94790 0.45930 100.03948 -0.00000013595291648016
77100 95.01063 45.94898 0.45930 100.04088 -0.00000013677342991514
77200 95.01165 45.96156 0.45943 100.04131 -0.00000013710656077137
77300 95.00949 45.95653 0.45938 100.04039 -0.00000016224248611252
77400 95.00769 45.95630 0.45938 100.03903 -0.00000019667789530331
77500 95.00848 45.97801 0.45960 100.03952 -0.00000022199780147503
77600 95.00762 45.98511 0.45966 100.04076 -0.00000028414061148396
77700 95.00885 46.00041 0.45981 100.04219 -0.00000021618014045544
77800 95.00851 46.01927 0.46000 100.04188 -0.00000018768965048821
77900 95.00862 46.03292 0.46013 100.04272 -0.00000014759840638590
78000 95.00808 46.05054 0.46031 100.04245 -0.00000012558679429731
78100 95.00942 46.07089 0.46051 100.04292 -0.00000011861460080809
78200 95.00852 46.08162 0.46062 100.04288 -0.00000012852595432378
78300 95.00892 46.09793 0.46079 100.04185 -0.00000016033731498055
78400 95.00915 46.11976 0.46100 100.04283 -0.00000018151656178134
78500 95.00935 46.15883 0.46139 100.04273 -0.00000014343950738294
78600 95.00986 46.18777 0.46169 100.04117 -0.00000008501664439109
78700 95.01224 46.21906 0.46199 100.04234 -0.00000004557311683584
78800 95.01231 46.23718 0.46217 100.04265 -0.00000006655396589395
78900 95.01003 46.24875 0.46231 100.03897 -0.00000007830946202603
79000 95.01001 46.25683 0.46239 100.03943 -0.00000008433502074467
79100 95.01333 46.27757 0.46258 100.04131 -0.00000009273632173290
79200 95.01517 46.29764 0.46277 100.04359 -0.00000007642175603451
79300 95.01568 46.31326 0.46293 100.04334 -0.00000010368745506639
79400 95.01357 46.32330 0.46304 100.04150 -0.00000013480328675541
79500 95.01179 46.33695 0.46318 100.04050 -0.00000019007714513464
79600 95.01194 46.34862 0.46330 100.03984 -0.00000017296475363082
79700 95.01003 46.36023 0.46343 100.03740 -0.00000018897098641446
79800 95.01419 46.40152 0.46383 100.04020 -0.00000026574620193287
79900 95.01463 46.42243 0.46403 100.04105 -0.00000022966327861695
80000 95.01271 46.45080 0.46432 100.03994 -0.00000027242495548307
80100 95.01490 46.48595 0.46467 100.04139 -0.00000026874180036884
80200 95.01685 46.52475 0.46505 100.04190 -0.00000027667075386262
80300 95.01526 46.55332 0.46533 100.04260 -0.00000025188690244704
80400 95.01524 46.58855 0.46569 100.04096 -0.00000023958441630612
80500 95.01219 46.61653 0.46598 100.03911 -0.00000022102069863195
80600 95.01138 46.65275 0.46634 100.03924 -0.00000021491277379937
80700 95.01276 46.68784 0.46669 100.03955 -0.00000023370898816211
80800 95.01397 46.73031 0.46712 100.03932 -0.00000024556319289104
80900 95.01567 46.77461 0.46755 100.04131 -0.00000021018613693968
81000 95.01677 46.81919 0.46799 100.04219 -0.00000014725477370803
81100 95.01678 46.86265 0.46843 100.04176 -0.00000013906942086805
81200 95.01504 46.89994 0.46881 100.04030 -0.00000011284937073697
81300 95.01182 46.93238 0.46913 100.04036 -0.00000010250043658289
81400 95.01056 46.96774 0.46949 100.03985 -0.00000013622192795992
81500 95.01108 47.00694 0.46988 100.04124 -0.00000012604571963948
81600 95.01217 47.04831 0.47029 100.04137 -0.00000015362445537903
81700 95.01216 47.09062 0.47071 100.04222 -0.00000010624871293885
81800 95.01242 47.13076 0.47110 100.04309 -0.00000010223466517800
81900 95.01507 47.18856 0.47168 100.04435 -0.00000008082265878784
82000 95.01676 47.24069 0.47219 100.04538 -0.00000010386972348897
82100 95.01668 47.28443 0.47263 100.04630 -0.00000010336407996192
82200 95.01578 47.32783 0.47306 100.04533 -0.00000011346951112046
82300 95.01762 47.38474 0.47363 100.04583 -0.00000009168354608846
82400 95.01539 47.43518 0.47413 100.04578 -0.00000010198464650557
82500 95.01649 47.48483 0.47463 100.04635 -0.00000009180396176589
82600 95.01718 47.54742 0.47525 100.04692 -0.00000013950479171854
82700 95.01588 47.60891 0.47586 100.04721 -0.00000013643331442381
82800 95.01829 47.66908 0.47646 100.04941 -0.00000011265739630062
82900 95.02024 47.72535 0.47701 100.05034 -0.00000014206018050800
83000 95.01991 47.78015 0.47756 100.05001 -0.00000014660706426639
83100 95.02200 47.84288 0.47818 100.05176 -0.00000014708966489252
83200 95.02508 47.90622 0.47881 100.05334 -0.00000018935909196216
83300 95.02314 47.96578 0.47940 100.05307 -0.00000023061216580800
83400 95.02571 48.01117 0.47986 100.05327 -0.00000020172558379272
83500 95.02557 48.00446 0.47979 100.05338 -0.00000018396264778175
83600 95.02669 48.01164 0.47985 100.05450 -0.00000013807479604111
83700 95.02760 48.02378 0.47998 100.05440 -0.00000010593681309956
83800 95.02859 48.04077 0.48014 100.05482 -0.00000008978803833770
83900 95.02845 48.05313 0.48027 100.05502 -0.00000009472910278419
84000 95.02836 48.06063 0.48033 100.05702 -0.00000009503624909257
84100 95.02517 48.05205 0.48025 100.05646 -0.00000008023927478007
84200 95.02602 48.04730 0.48019 100.05792 -0.00000009332229922165
84300 95.02594 48.04168 0.48014 100.05809 -0.00000010250433746251
84400 95.02687 48.02873 0.48001 100.05857 -0.00000009228750741386
84500 95.02810 48.02733 0.47998 100.06033 -0.00000009806625200781
84600 95.02585 47.98715 0.47959 100.05845 -0.00000011418813272712
84700 95.02521 47.94766 0.47920 100.05861 -0.00000011710211111904
84800 95.02788 47.93691 0.47908 100.05952 -0.00000009661356870083
84900 95.02890 47.91139 0.47883 100.05896 -0.00000007851743788478
85000 95.03158 47.89006 0.47862 100.05888 -0.00000009853155091832
85100 95.03023 47.85271 0.47825 100.05840 -0.00000008691643671455
85200 95.03017 47.82771 0.47800 100.05819 -0.00000004848590862139
85300 95.03213 47.80520 0.47778 100.05740 -0.00000002962624989777
85400 95.03150 47.77721 0.47750 100.05737 0.00000000731449034674
85500 95.03179 47.74435 0.47717 100.05687 0.00000002046385105814
85600 95.03415 47.72211 0.47694 100.05870 0.00000003190095299033
85700 95.03280 47.68457 0.47657 100.05734 0.00000003242717383500
85800 95.03179 47.64625 0.47620 100.05540 0.00000000906267416667
85900 95.02991 47.60575 0.47581 100.05275 0.00000001902506596707
86000 95.03287 47.59080 0.47565 100.05408 0.00000000560466162369
86100 95.03396 47.56770 0.47541 100.05623 0.00000005156201154932
86200 95.03668 47.55592 0.47528 100.05803 0.00000003777318369202
86300 95.03804 47.52750 0.47499 100.05983 -0.00000000499705521406
86400 95.03897 47.50372 0.47475 100.06064 -0.00000000735050065259
86500 95.03812 47.46524 0.47437 100.05949 -0.00000003523938119088
86600 95.03764 47.42817 0.47400 100.05979 -0.00000000702682001474
86700 95.03779 47.40364 0.47376 100.05926 -0.00000001223561696406
86800 95.03636 47.37141 0.47344 100.05848 -0.00000004402294706551
86900 95.03273 47.33922 0.47313 100.05632 -0.00000001842005303843
87000 95.03106 47.31676 0.47290 100.05602 0.00000001190522880279
87100 95.03191 47.29814 0.47272 100.05617 0.00000002613616345570
87200 95.03332 47.28253 0.47256 100.05663 0.00000000368221719782
87300 95.03056 47.24609 0.47220 100.05425 0.00000004199187486620
87400 95.03058 47.21768 0.47192 100.05383 0.00000005792326618348
87500 95.03107 47.19770 0.47173 100.05287 0.00000008608000001686
87600 95.03189 47.17703 0.47151 100.05445 0.00000009080628160518
87700 95.03253 47.15842 0.47133 100.05464 0.00000007771284771252
87800 95.03231 47.13502 0.47109 100.05484 0.00000009925570765290
87900 95.03221 47.11141 0.47086 100.05454 0.00000009223677466252
88000 95.03265 47.09388 0.47068 100.05427 0.00000008487312896932
88100 95.03515 47.09346 0.47068 100.05455 0.00000009873620143708
88200 95.03382 47.08755 0.47062 100.05464 0.00000010926663662758
88300 95.03530 47.07243 0.47046 100.05686 0.00000013628221751105
88400 95.03518 47.05090 0.47024 100.05723 0.00000017447914757440
88500 95.03324 47.02799 0.47002 100.05557 0.00000018042336336066
88600 95.03294 47.01085 0.46985 100.05582 0.00000017532660478992
88700 95.03425 47.01198 0.46986 100.05629 0.00000016584646544970
88800 95.03279 47.01210 0.46986 100.05515 0.00000019497598913176
88900 95.03056 47.01241 0.46987 100.05435 0.00000019112511751018
89000 95.03044 47.01980 0.46994 100.05397 0.00000020043678006232
89100 95.03130 47.01006 0.46985 100.05308 0.00000025910924250638
89200 95.03041 46.98899 0.46964 100.05230 0.00000025723645080689
89300 95.03231 46.98151 0.46957 100.05295 0.00000025440017736855
89400 95.03257 46.95144 0.46927 100.05275 0.00000027488182752222
89500 95.03057 46.91775 0.46894 100.05112 0.00000024007614030097
89600 95.03059 46.88730 0.46863 100.05224 0.00000023593248954512
89700 95.03062 46.86029 0.46836 100.05270 0.00000022379671094086
89800 95.02979 46.82504 0.46801 100.05145 0.00000020398397282406
89900 95.03030 46.79858 0.46774 100.05315 0.00000025253299895667
90000 95.02988 46.76809 0.46744 100.05177 0.00000024777428819789
90100 95.03147 46.74459 0.46720 100.05265 0.00000025370284362225
90200 95.03008 46.71697 0.46693 100.05160 0.00000024729285286185
90300 95.02988 46.69944 0.46675 100.05140 0.00000023067732968229
90400 95.03030 46.67907 0.46656 100.05014 0.00000022984936265402
90500 95.03271 46.68195 0.46657 100.05242 0.00000025942996018102
90600 95.03393 46.67425 0.46650 100.05249 0.00000027322980855615
90700 95.03183 46.65624 0.46633 100.04925 0.00000027134834112985
90800 95.02707 46.63669 0.46615 100.04741 0.00000026461107438536
90900 95.02856 46.64138 0.46619 100.04886 0.00000023591844922066
91000 95.02954 46.65375 0.46631 100.04943 0.00000023621880274050
91100 95.03024 46.66174 0.46639 100.04920 0.00000025585214302737
91200 95.02903 46.66629 0.46643 100.04895 0.00000025934724590115
91300 95.03045 46.69179 0.46668 100.05004 0.00000022580670844263
91400 95.02771 46.69746 0.46675 100.04811 0.00000026116052254110
91500 95.02550 46.70746 0.46686 100.04666 0.00000026527598606663
91600 95.02551 46.71942 0.46697 100.04698 0.00000025985550422547
91700 95.02657 46.72716 0.46705 100.04642 0.00000026503619210416
91800 95.02628 46.73162 0.46710 100.04629 0.00000026410046416458
91900 95.02817 46.75259 0.46730 100.04771 0.00000024960807820662
92000 95.03024 46.76563 0.46742 100.04957 0.00000025567700134843
92100 95.03117 46.77710 0.46754 100.04990 0.00000026995611079883
92200 95.03199 46.78841 0.46765 100.04990 0.00000025361171651639
92300 95.03335 46.80252 0.46779 100.05106 0.00000022041002267770
92400 95.03421 46.81437 0.46790 100.05123 0.00000023633540280343
92500 95.03224 46.82543 0.46802 100.05074 0.00000024713565949241
92600 95.03427 46.87046 0.46846 100.05164 0.00000023850159891481
92700 95.03470 46.89072 0.46867 100.05143 0.00000026843623146533
92800 95.03432 46.91879 0.46895 100.05137 0.00000025906230405326
92900 95.03657 46.95123 0.46926 100.05276 0.00000021478841460976
93000 95.03664 46.96814 0.46943 100.05269 0.00000020637665443246
93100 95.03682 46.99146 0.46966 100.05342 0.00000022721263093217
93200 95.03658 47.01184 0.46987 100.05365 0.00000020657389399048
93300 95.03773 47.03765 0.47012 100.05432 0.00000022532496046779
93400 95.03574 47.05889 0.47034 100.05320 0.00000028143701058525
93500 95.03599 47.08438 0.47059 100.05424 0.00000029702437132073
93600 95.03264 47.10751 0.47082 100.05345 0.00000033577273939045
93700 95.03475 47.15549 0.47130 100.05378 0.00000030932573480413
93800 95.03169 47.18006 0.47156 100.05178 0.00000029521254418796
93900 95.03139 47.21383 0.47189 100.05197 0.00000031620479035155
94000 95.03149 47.24869 0.47224 100.05144 0.00000030554673458028
94100 95.03087 47.27796 0.47254 100.04979 0.00000025935742087313
94200 95.03212 47.33085 0.47307 100.05001 0.00000026193058033641
94300 95.03389 47.38618 0.47362 100.05062 0.00000028239488614190
94400 95.03543 47.42341 0.47400 100.05005 0.00000027356036014226
94500 95.03430 47.45593 0.47432 100.04999 0.00000028122391171337
94600 95.03445 47.48561 0.47462 100.05013 0.00000032011844552926
94700 95.03459 47.51316 0.47489 100.05008 0.00000031271912348529
94800 95.03182 47.53979 0.47517 100.04843 0.00000026676333675368
94900 95.03071 47.56558 0.47543 100.04759 0.00000026175491285585
95000 95.03029 47.59361 0.47572 100.04629 0.00000024474897486471
95100 95.02905 47.61763 0.47596 100.04512 0.00000024263611209108
95200 95.02797 47.64004 0.47619 100.04399 0.00000021482562573283
95300 95.03008 47.68823 0.47667 100.04469 0.00000022737273042139
95400 95.02839 47.71887 0.47698 100.04371 0.00000022368189434019
95500 95.02964 47.76019 0.47739 100.04457 0.00000018007376922924
95600 95.03174 47.80449 0.47783 100.04481 0.00000017846706157343
95700 95.03288 47.84778 0.47826 100.04509 0.00000017931788676151
95800 95.03239 47.89233 0.47872 100.04320 0.00000019117673843994
95900 95.03316 47.95313 0.47933 100.04290 0.00000018771364551640
96000 95.03171 48.00605 0.47985 100.04300 0.00000021740415689919
96100 95.03337 48.06692 0.48045 100.04520 0.00000019537784368140
96200 95.03569 48.14360 0.48121 100.04692 0.00000020580892368116
96300 95.03520 48.21185 0.48189 100.04833 0.00000016966464500001
96400 95.03689 48.29052 0.48267 100.04972 0.00000012398898263655
96500 95.03575 48.36237 0.48339 100.04907 0.00000013817994926058
96600 95.03484 48.43791 0.48415 100.04776 0.00000013351895233882
96700 95.03569 48.52022 0.48497 100.04874 0.00000014382097646148
96800 95.03274 48.59519 0.48572 100.04789 0.00000013586723923709
96900 95.03282 48.68029 0.48657 100.04727 0.00000014401053505253
97000 95.03165 48.75879 0.48736 100.04694 0.00000014593003072605
97100 95.03341 48.85586 0.48832 100.04866 0.00000017536886076641
97200 95.03544 48.95534 0.48931 100.04943 0.00000018181680161433
97300 95.03444 49.03948 0.49016 100.04883 0.00000023876995669525
97400 95.03598 49.13403 0.49109 100.05000 0.00000024052785363438
97500 95.03665 49.22508 0.49201 100.04887 0.00000023320117747971
97600 95.03727 49.31586 0.49292 100.04939 0.00000021882794953854
97700 95.03960 49.43376 0.49409 100.04949 0.00000023886816080676
97800 95.03998 49.53362 0.49510 100.04819 0.00000021940268624121
97900 95.03981 49.63841 0.49614 100.04847 0.00000020106003972842
98000 95.04014 49.74540 0.49721 100.04930 0.00000014984215823688
98100 95.03890 49.84771 0.49824 100.04857 0.00000012729710618942
98200 95.03851 49.95356 0.49929 100.04877 0.00000015954674381646
98300 95.03970 50.06313 0.50039 100.04890 0.00000012144956684779
98400 95.04019 50.17303 0.50149 100.04888 0.00000013590197767144
98500 95.04134 50.29035 0.50266 100.04885 0.00000011188824800001
98600 95.04214 50.40954 0.50385 100.04854 0.00000010145161155606
98700 95.04209 50.52492 0.50501 100.04822 0.00000010637184288953
98800 95.04111 50.63731 0.50612 100.04910 0.00000010287123330954
98900 95.04130 50.75507 0.50730 100.04910 0.00000005768746547119
99000 95.04050 50.86864 0.50844 100.04763 0.00000008938489060029
99100 95.04093 50.98258 0.50958 100.04805 0.00000010694146368451
99200 95.04025 51.09846 0.51074 100.04740 0.00000009595656536021
99300 95.03938 51.21854 0.51195 100.04610 0.00000009266175027278
99400 95.03875 51.34124 0.51318 100.04483 0.00000013202965476466
99500 95.03986 51.47477 0.51452 100.04435 0.00000013982305091531
99600 95.03886 51.59468 0.51572 100.04422 0.00000013320922676030
99700 95.03834 51.71514 0.51693 100.04353 0.00000012219773282141
99800 95.03918 51.83729 0.51815 100.04390 0.00000009651914467668
99900 95.03932 51.96344 0.51940 100.04499 0.00000010889827706251
100000 95.04126 52.10834 0.52085 100.04531 0.00000009039103332498
