#Arquivo Dados/ColetaTotal99.txt 
#Parâmetros(Ocupação: 99.00%, Capacidade: 356363.636 bps)
#Coleta|Ocupação|E(n)|E(w)|lambda|Little

100 97.99967 39.40167 0.39723 99.19000 0.00000000002394529020
200 96.73074 30.10329 0.30529 98.60500 0.00000000006142286679
300 97.26320 30.38713 0.30713 98.94000 0.00000000007606715258
400 97.94585 63.10104 0.63504 99.36500 0.00000000015299406186
500 98.35791 97.12272 0.97685 99.42400 0.00000000008964207154
600 98.63120 102.25634 1.02561 99.70333 0.00000000002407318789
700 98.82772 104.43612 1.04696 99.75143 0.00000000004318678748
800 98.97292 105.00201 1.05147 99.86250 0.00000000011458212157
900 99.08827 107.90928 1.08166 99.76222 -0.00000000010432188446
1000 99.17849 113.92082 1.14103 99.84000 0.00000000023861446152
1100 99.18116 111.08049 1.11324 99.78091 0.00000000046293280320
1200 99.15604 112.49113 1.12493 99.99833 0.00000000092525453965
1300 99.10534 112.74839 1.12744 100.00385 0.00000000103413810848
1400 99.00871 106.96992 1.06964 100.00571 0.00000000078885875610
1500 98.94732 102.96525 1.03026 99.94133 0.00000000056337512433
1600 98.97765 101.02924 1.00966 100.06250 0.00000000005951505955
1700 99.01116 99.72252 0.99691 100.03176 0.00000000065780625391
1800 99.03920 99.68078 0.99592 100.08889 0.00000000077450579283
1900 99.08877 102.15112 1.02032 100.11684 0.00000000019156232156
2000 99.13485 106.95647 1.06847 100.10200 -0.00000000008675726804
2100 99.10145 104.03545 1.04004 100.03000 -0.00000000047452886065
2200 99.11886 101.40320 1.01330 100.07227 -0.00000000046229331474
2300 99.15063 101.00516 1.00874 100.13043 -0.00000000044755665840
2400 99.13111 99.74786 0.99577 100.17208 -0.00000000188649096344
2500 99.16510 104.92483 1.04713 100.20200 0.00000000052904169934
2600 99.19731 107.28955 1.07082 100.19385 -0.00000000008050449196
2700 99.22718 109.37329 1.09142 100.21185 0.00000000116442322451
2800 99.22605 108.17713 1.07944 100.21607 0.00000000033477931538
2900 99.25298 107.66731 1.07378 100.26931 -0.00000000032947866657
3000 99.26788 107.25736 1.06960 100.27800 0.00000000061480420754
3100 99.25215 105.40998 1.05144 100.25258 0.00000000116058629374
3200 99.23266 103.95181 1.03721 100.22219 0.00000000121019638755
3300 99.15298 102.04117 1.01840 100.19788 0.00000000193978166863
3400 99.15685 100.67542 1.00472 100.20265 0.00000000439615632786
3500 99.14209 99.63646 0.99376 100.26200 0.00000000490571494538
3600 99.15586 100.08035 0.99822 100.25917 0.00000000521002618825
3700 99.17169 99.38825 0.99101 100.28946 0.00000000790373633208
3800 99.18107 100.37101 1.00022 100.34921 0.00000000890950957455
3900 99.20224 103.12905 1.02822 100.29872 0.00000000891877505182
4000 99.18870 102.16833 1.01864 100.29925 0.00000000888952911282
4100 99.19583 102.05657 1.01763 100.28854 0.00000000704766023318
4200 99.16250 101.17644 1.00883 100.29071 0.00000000678222988881
4300 99.10925 100.37721 1.00104 100.27326 0.00000000644558895146
4400 99.06228 99.39336 0.99149 100.24614 0.00000000605461991654
4500 99.08244 99.67682 0.99417 100.26156 0.00000000562606317089
4600 99.07746 98.91646 0.98661 100.25935 0.00000000450857839951
4700 99.04680 98.18860 0.97943 100.25085 0.00000000309468362047
4800 99.06664 99.65753 0.99398 100.26104 0.00000000439975167410
4900 99.08583 100.51383 1.00236 100.27714 0.00000000295699464914
5000 99.10405 104.53441 1.04240 100.28260 -0.00000000001567457275
5100 99.12213 106.66464 1.06387 100.26137 0.00000000114870601919
5200 99.13634 106.88458 1.06594 100.27269 0.00000000375072772840
5300 99.15020 107.55569 1.07261 100.27509 0.00000000361751517630
5400 99.16054 108.21630 1.07917 100.27722 0.00000000322705773215
5500 99.14819 107.63211 1.07357 100.25582 0.00000000427043289619
5600 99.14486 107.09276 1.06845 100.23143 0.00000000402403088628
5700 99.16016 108.24942 1.07979 100.25088 0.00000000498212671118
5800 99.17439 110.71831 1.10407 100.28190 0.00000000590382853716
5900 99.18820 115.06467 1.14737 100.28542 0.00000000595343863097
6000 99.20214 119.79173 1.19463 100.27500 0.00000000317955084483
6100 99.21483 121.48902 1.21142 100.28623 0.00000000355076679170
6200 99.22750 122.83778 1.22465 100.30468 0.00000000502907937516
6300 99.23982 127.36892 1.26977 100.30857 0.00000000672316957662
6400 99.25208 133.12680 1.32691 100.32859 0.00000001011670747175
6500 99.26342 136.66008 1.36235 100.31200 0.00000001307077468482
6600 99.27436 138.97614 1.38555 100.30409 0.00000001861639020717
6700 99.27110 138.65778 1.38267 100.28284 0.00000001528979964860
6800 99.27046 138.16927 1.37771 100.28941 0.00000000754243956180
6900 99.25763 137.76636 1.37398 100.26812 0.00000000429031388194
7000 99.26837 138.67250 1.38267 100.29343 0.00000000142253497870
7100 99.27866 139.62398 1.39214 100.29423 0.00000000204911998480
7200 99.27291 139.33591 1.38952 100.27611 0.00000000125595533973
7300 99.24278 138.60574 1.38245 100.26096 0.00000000088905949269
7400 99.23320 138.05209 1.37694 100.25973 0.00000000102892272480
7500 99.22157 137.62501 1.37282 100.24960 0.00000000359764840141
7600 99.20551 137.20135 1.36872 100.24053 0.00000000359742102773
7700 99.19083 136.35601 1.36042 100.23091 0.00000000369891495211
7800 99.17692 135.39698 1.35105 100.21641 0.00000000633991703580
7900 99.18551 135.28325 1.34966 100.23494 0.00000000686043222231
8000 99.18926 134.84547 1.34529 100.23550 0.00000000441454517386
8100 99.19938 135.60270 1.35262 100.25185 0.00000000514899056725
8200 99.20900 136.89539 1.36563 100.24354 0.00000000299289126815
8300 99.21434 136.64109 1.36339 100.22145 -0.00000000015927525965
8400 99.20681 135.90991 1.35598 100.23000 -0.00000000065841732066
8500 99.21612 135.70508 1.35394 100.22988 0.00000000036990854824
8600 99.19172 134.89115 1.34611 100.20791 0.00000000245671571975
8700 99.17096 134.41214 1.34128 100.21195 0.00000000122162191474
8800 99.16475 133.75290 1.33495 100.19307 -0.00000000030593128031
8900 99.15951 133.36517 1.33083 100.21202 -0.00000000063047878029
9000 99.16563 133.36021 1.33074 100.21544 0.00000000047950265980
9100 99.13151 132.55522 1.32300 100.19286 -0.00000000026452084967
9200 99.11305 131.88002 1.31631 100.18935 0.00000000011709744285
9300 99.12233 132.17367 1.31923 100.19022 -0.00000000146849288285
9400 99.11463 131.72313 1.31482 100.18372 0.00000000003402078619
9500 99.10810 131.34588 1.31113 100.17800 0.00000000109116626845
9600 99.11148 130.58265 1.30348 100.18021 0.00000000137615074891
9700 99.11432 129.80824 1.29591 100.16784 -0.00000000188455828720
9800 99.11175 128.94741 1.28744 100.15837 0.00000000653517417959
9900 99.11180 128.60084 1.28390 100.16434 0.00000000709977143742
10000 99.10308 127.85973 1.27656 100.15990 0.00000000758464580031
10100 99.10577 127.14501 1.26941 100.16089 0.00000000984600490028
10200 99.11462 127.21399 1.27008 100.16245 0.00000000375054298729
10300 99.10975 126.91579 1.26725 100.15029 0.00000000264535060523
10400 99.11559 126.90408 1.26702 100.15923 0.00000000708502057023
10500 99.12401 126.53578 1.26343 100.15267 0.00000000646480202704
10600 99.12203 125.82648 1.25636 100.15170 0.00000000207411687825
10700 99.11763 125.06328 1.24879 100.14729 0.00000000412251210946
10800 99.11873 124.85229 1.24663 100.15204 0.00000000295770519187
10900 99.12673 125.82322 1.25631 100.15275 -0.00000000098523855740
11000 99.13491 126.44399 1.26232 100.16827 0.00000000250638265697
11100 99.14246 126.84846 1.26630 100.17270 0.00000000092904883786
11200 99.14017 126.79016 1.26581 100.16536 0.00000000108380504571
11300 99.14449 126.68918 1.26478 100.16717 -0.00000000057184479374
11400 99.13540 126.12276 1.25918 100.16254 0.00000000544847011952
11500 99.14287 126.73284 1.26525 100.16400 0.00000000783731479714
11600 99.15032 127.29659 1.27097 100.15724 0.00000000394679489091
11700 99.15756 128.69798 1.28478 100.17137 0.00000000627463236924
11800 99.16466 129.56216 1.29361 100.15542 0.00000000748013917473
11900 99.16492 129.60612 1.29401 100.15832 0.00000001094682033909
12000 99.16369 129.28650 1.29085 100.15633 0.00000000890474893822
12100 99.17049 129.17785 1.28966 100.16397 0.00000001272280769626
12200 99.16164 128.57145 1.28357 100.16672 0.00000001646094460739
12300 99.15636 128.22480 1.28003 100.17358 0.00000001483124378865
12400 99.15628 127.93877 1.27711 100.17839 0.00000001596404786142
12500 99.15994 127.69824 1.27464 100.18416 0.00000001514099778888
12600 99.14222 127.11631 1.26878 100.18778 0.00000001388268344726
12700 99.14676 127.23950 1.26993 100.19441 0.00000001464405841034
12800 99.14723 127.06752 1.26820 100.19547 0.00000001354153766897
12900 99.14194 126.68467 1.26443 100.19140 0.00000001207911282108
13000 99.13382 126.22194 1.25998 100.17777 0.00000001592474063727
13100 99.12922 125.77710 1.25557 100.17557 0.00000001659009285504
13200 99.12051 125.32654 1.25117 100.16712 0.00000001818922612529
13300 99.11439 125.60395 1.25377 100.18128 0.00000001122897685946
13400 99.10786 125.42474 1.25210 100.17172 0.00000001658602855059
13500 99.09275 124.97953 1.24772 100.16622 0.00000002111383423653
13600 99.07497 124.53420 1.24343 100.15338 0.00000001730319354465
13700 99.08183 124.78940 1.24608 100.14591 0.00000001935204352321
13800 99.08340 124.41858 1.24232 100.15051 0.00000002299977097664
13900 99.07967 124.09493 1.23915 100.14540 0.00000002749146688075
14000 99.07145 123.59309 1.23421 100.13971 0.00000002002744281526
14100 99.07806 123.67779 1.23499 100.14489 0.00000002306791202500
14200 99.07945 123.46089 1.23278 100.14796 0.00000002093022999361
14300 99.07721 123.15107 1.22972 100.14552 0.00000002109329955147
14400 99.05795 122.62286 1.22457 100.13542 0.00000002014515132487
14500 99.04660 122.58794 1.22422 100.13586 0.00000001598473886588
14600 99.05312 123.55101 1.23381 100.13740 0.00000001898861512473
14700 99.05728 123.90144 1.23733 100.13619 0.00000002623644945743
14800 99.05041 123.61605 1.23444 100.13932 0.00000003620812094596
14900 99.05681 124.08076 1.23903 100.14356 0.00000004294092548207
15000 99.06166 123.92718 1.23756 100.13860 0.00000004903996853045
15100 99.04831 123.53952 1.23382 100.12801 0.00000005266701919027
15200 99.03449 123.12675 1.22979 100.11980 0.00000005601873453998
15300 99.03188 122.83908 1.22689 100.12248 0.00000005889738474707
15400 99.02853 122.61693 1.22476 100.11474 0.00000005051181517501
15500 99.02205 122.28537 1.22147 100.11316 0.00000004800985209386
15600 99.02825 122.80684 1.22662 100.11801 0.00000004545793785837
15700 99.03449 123.34492 1.23202 100.11605 0.00000004860004310103
15800 99.03351 123.19544 1.23059 100.11082 0.00000004933470165724
15900 99.02948 122.90032 1.22764 100.11119 0.00000005550070625304
16000 99.03247 122.75305 1.22611 100.11562 0.00000004758092586599
16100 99.03532 122.73205 1.22592 100.11422 0.00000004976895695563
16200 99.02777 122.41909 1.22288 100.10728 0.00000004469762870940
16300 99.02898 122.42401 1.22290 100.10945 0.00000004356262195415
16400 99.03171 122.25288 1.22119 100.10963 0.00000004198381020615
16500 99.02052 121.98277 1.21854 100.10582 0.00000005034073069510
16600 99.02107 121.64084 1.21515 100.10331 0.00000004911318285394
16700 99.02693 121.32775 1.21204 100.10228 0.00000005124883273311
16800 99.02375 120.81082 1.20686 100.10304 0.00000005006195635815
16900 99.02544 120.45384 1.20323 100.10888 0.00000005294910465636
17000 99.03106 121.22384 1.21090 100.11082 0.00000005262349134227
17100 99.03180 121.15241 1.21030 100.10094 0.00000005816639259137
17200 99.03414 120.85191 1.20722 100.10738 0.00000006858577705771
17300 99.03338 120.58419 1.20461 100.10225 0.00000006945100494704
17400 99.03337 120.25033 1.20130 100.09983 0.00000006325969081900
17500 99.03466 119.86877 1.19751 100.09857 0.00000006591812962142
17600 99.02817 119.42690 1.19311 100.09744 0.00000006881771241751
17700 99.02981 119.13266 1.19010 100.10271 0.00000006912794958680
17800 99.03528 119.88307 1.19755 100.10669 0.00000007030597259927
17900 99.04069 120.57212 1.20448 100.10341 0.00000007596970874602
18000 99.04604 120.78211 1.20645 100.11328 0.00000007922380973469
18100 99.05127 121.53697 1.21400 100.11293 0.00000008131546280765
18200 99.04536 121.07805 1.20940 100.11445 0.00000008541159957076
18300 99.03196 120.56331 1.20435 100.10650 0.00000008126113471008
18400 99.02677 120.18346 1.20065 100.09864 0.00000008552629537917
18500 99.01761 119.79114 1.19683 100.09065 0.00000008129023854053
18600 99.01426 119.42524 1.19316 100.09194 0.00000007951317115840
18700 99.01949 119.32178 1.19207 100.09588 0.00000008151830854786
18800 99.01274 118.97799 1.18870 100.09112 0.00000007730413642548
18900 99.01588 118.76903 1.18662 100.09011 0.00000007035768589958
19000 99.00416 118.40392 1.18312 100.07758 0.00000007889656217230
19100 99.00566 118.14978 1.18057 100.07885 0.00000009645303578054
19200 99.00979 118.01899 1.17919 100.08458 0.00000010017517126926
19300 99.01350 117.82597 1.17727 100.08435 0.00000010168211872497
19400 99.01402 117.68200 1.17590 100.07856 0.00000009972902148547
19500 99.01293 117.50838 1.17415 100.07964 0.00000010321785737233
19600 99.01526 117.65353 1.17564 100.07587 0.00000009725565064400
19700 99.01537 117.44632 1.17354 100.07883 0.00000009064267203485
19800 99.01485 117.32465 1.17235 100.07667 0.00000009084472196719
19900 99.00748 117.15621 1.17082 100.06367 0.00000008897886516479
20000 99.00470 116.92537 1.16859 100.05680 0.00000008847793253608
20100 99.00685 117.00477 1.16936 100.05891 0.00000008654200200908
20200 99.01031 116.82945 1.16757 100.06183 0.00000009183840177229
20300 99.01218 116.68513 1.16605 100.06833 0.00000010409839035219
20400 99.01702 117.76669 1.17679 100.07412 0.00000008968369513696
20500 99.02040 118.25978 1.18174 100.07229 0.00000008578955146277
20600 99.02038 118.01345 1.17937 100.06505 0.00000009165833603220
20700 99.02381 117.91994 1.17844 100.06478 0.00000010175858733419
20800 99.02399 117.55580 1.17479 100.06538 0.00000010434645503210
20900 99.02489 117.27381 1.17196 100.06617 0.00000010146963802526
21000 99.02634 117.09411 1.17014 100.06862 0.00000010333874911339
21100 99.02740 117.01267 1.16928 100.07256 0.00000010710999731600
21200 99.03196 117.45036 1.17362 100.07495 0.00000010655084281552
21300 99.03116 117.24170 1.17163 100.06737 0.00000011336524607941
21400 99.03266 116.92486 1.16845 100.06836 0.00000011115069753487
21500 99.03122 116.65171 1.16576 100.06460 0.00000010250651882870
21600 99.02926 116.33303 1.16256 100.06602 0.00000009487851571066
21700 99.02045 115.97802 1.15907 100.06101 0.00000009525301436497
21800 99.01193 115.61327 1.15551 100.05413 0.00000008472191836972
21900 99.00666 115.24155 1.15185 100.04927 0.00000007244398148032
22000 99.00255 114.91914 1.14871 100.04150 0.00000005562549176830
22100 99.00041 114.80636 1.14759 100.04131 0.00000005151929372005
22200 98.99758 114.52594 1.14477 100.04293 0.00000004407365850057
22300 98.99489 114.34746 1.14304 100.03794 0.00000004117049456909
22400 98.98434 114.08293 1.14043 100.03473 0.00000002840911861313
22500 98.98360 113.95150 1.13915 100.03209 0.00000003353233068992
22600 98.98811 114.10824 1.14072 100.03142 0.00000003824516170425
22700 98.99254 114.10392 1.14066 100.03339 0.00000003474400500636
22800 98.99319 113.81525 1.13781 100.03039 0.00000003861883612899
22900 98.99562 113.60118 1.13571 100.02690 0.00000003723829422597
23000 98.98458 113.18855 1.13167 100.01939 0.00000004359534955256
23100 98.98713 113.34079 1.13309 100.02835 0.00000003902088963059
23200 98.99002 113.25369 1.13220 100.02983 0.00000004050727397953
23300 98.99215 113.17711 1.13143 100.02974 0.00000003468639420134
23400 98.99471 113.06377 1.13033 100.02714 0.00000003303800610865
23500 98.99548 112.87129 1.12838 100.02991 0.00000003576096219149
23600 98.99664 112.65799 1.12630 100.02492 0.00000003663546976895
23700 98.99449 112.41504 1.12386 100.02616 0.00000004624804716968
23800 98.99721 112.62887 1.12590 100.03466 0.00000004347175774910
23900 99.00141 112.88577 1.12850 100.03172 0.00000004129280739562
24000 98.99779 112.55338 1.12521 100.02904 0.00000003932220238312
24100 98.99670 112.33860 1.12308 100.02697 0.00000004112858675853
24200 98.99263 111.99586 1.11973 100.02062 0.00000003770537659875
24300 98.98666 111.72772 1.11703 100.02226 0.00000003551461702500
24400 98.98314 111.44570 1.11423 100.02029 0.00000003759943467685
24500 98.98484 111.57832 1.11560 100.01633 0.00000003459572894826
24600 98.98898 111.92389 1.11899 100.02207 0.00000003342698562392
24700 98.99317 111.99466 1.11971 100.02077 0.00000003022614691872
24800 98.98561 111.71384 1.11697 100.01544 0.00000003158012873428
24900 98.98791 111.78584 1.11769 100.01510 0.00000003285911986950
25000 98.98808 111.66194 1.11640 100.02004 0.00000003627746991697
25100 98.99210 111.98792 1.11967 100.01841 0.00000003765221379126
25200 98.99239 111.82267 1.11806 100.01492 0.00000004065482528404
25300 98.98354 111.55625 1.11543 100.01158 0.00000004363960215414
25400 98.98384 111.40996 1.11392 100.01622 0.00000004814076248749
25500 98.98388 111.48678 1.11467 100.01804 0.00000004045459434110
25600 98.98781 111.69638 1.11676 100.01855 0.00000002812019772591
25700 98.98756 111.61204 1.11594 100.01611 0.00000002008322042002
25800 98.98897 111.45368 1.11425 100.02581 0.00000002478655858340
25900 98.98578 111.25281 1.11219 100.03019 0.00000002082151695504
26000 98.97532 110.96300 1.10941 100.02023 0.00000002791571773741
26100 98.97411 110.82355 1.10802 100.01946 0.00000001907828561798
26200 98.96530 110.56073 1.10549 100.01057 0.00000001746886368892
26300 98.96492 110.38571 1.10376 100.00894 0.00000001553560480261
26400 98.96735 110.31365 1.10305 100.00758 0.00000003175983920300
26500 98.95453 110.03375 1.10035 99.99898 0.00000003196623765689
26600 98.95705 110.00463 1.09997 100.00692 0.00000004665611186283
26700 98.96099 110.55180 1.10540 100.01090 0.00000004430503963704
26800 98.96482 111.03867 1.11024 100.01358 0.00000005216050169565
26900 98.96326 110.81256 1.10797 100.01383 0.00000005381642154134
27000 98.95223 110.53478 1.10528 100.00622 0.00000005522315404960
27100 98.95315 110.37057 1.10365 100.00487 0.00000004990175739295
27200 98.95436 110.34406 1.10341 100.00301 0.00000003402529102914
27300 98.94759 110.07443 1.10073 100.00136 0.00000002194897774643
27400 98.94945 109.99999 1.09999 100.00062 0.00000002295718104506
27500 98.95121 109.87037 1.09868 100.00200 0.00000001814599670524
27600 98.95281 109.70741 1.09706 100.00094 0.00000003307297902211
27700 98.95663 109.96929 1.09965 100.00347 0.00000003017952110440
27800 98.95486 109.73885 1.09737 100.00147 0.00000003373344270585
27900 98.94524 109.41743 1.09422 99.99595 0.00000003368839429641
28000 98.94566 109.33616 1.09336 100.00029 0.00000001822165529575
28100 98.94942 109.29360 1.09287 100.00616 0.00000002043519486961
28200 98.95038 109.22751 1.09225 100.00248 0.00000002226313711162
28300 98.95015 109.20734 1.09205 100.00180 0.00000001634209922940
28400 98.95009 108.98826 1.08981 100.00637 0.00000000827942869819
28500 98.95377 109.36603 1.09357 100.00825 0.00000000683553480485
28600 98.95743 110.04240 1.10032 100.00951 0.00000000229837837651
28700 98.96108 110.33423 1.10323 100.01031 0.00000000055553073253
28800 98.96344 110.42563 1.10417 100.00785 0.00000001495138235441
28900 98.95849 110.24989 1.10239 100.00958 0.00000001756430378919
29000 98.95686 110.02117 1.10017 100.00386 0.00000000376600439722
29100 98.95838 109.96059 1.09957 100.00347 0.00000000385335852116
29200 98.95741 109.82770 1.09827 100.00086 0.00000000179578307780
29300 98.95538 109.61940 1.09617 100.00229 -0.00000001129778581799
29400 98.95892 109.87856 1.09870 100.00803 -0.00000002118757436165
29500 98.96023 109.82100 1.09815 100.00505 -0.00000002026641254815
29600 98.96137 109.84285 1.09838 100.00436 0.00000000011918643850
29700 98.96486 109.84960 1.09843 100.00572 -0.00000000016440537820
29800 98.96673 109.70615 1.09698 100.00765 -0.00000000853735571127
29900 98.96683 109.49328 1.09486 100.00696 0.00000000046271964038
30000 98.96768 109.39565 1.09390 100.00473 0.00000000983452252967
30100 98.96700 109.20908 1.09206 100.00292 0.00000001439590846530
30200 98.96557 109.05124 1.09049 100.00248 0.00000001859545761818
30300 98.96863 108.87655 1.08878 99.99825 0.00000003019707150997
30400 98.96283 108.61744 1.08622 99.99609 0.00000005172597639103
30500 98.96434 108.66031 1.08664 99.99682 0.00000005271419922792
30600 98.96576 108.59045 1.08594 99.99644 0.00000006188091106196
30700 98.96517 108.49230 1.08499 99.99384 0.00000005522009871584
30800 98.96224 108.33529 1.08339 99.99636 0.00000004763545291553
30900 98.96238 108.20214 1.08204 99.99851 0.00000005060155672254
31000 98.96573 108.64706 1.08641 100.00513 0.00000006604571467506
31100 98.96909 109.23829 1.09234 100.00418 0.00000007333206042404
31200 98.97235 109.67775 1.09671 100.00571 0.00000007540197088929
31300 98.97407 109.65162 1.09644 100.00709 0.00000007331158258239
31400 98.97736 109.66406 1.09656 100.00723 0.00000008073013191279
31500 98.97559 109.60144 1.09597 100.00371 0.00000007838616511435
31600 98.97320 109.38680 1.09382 100.00472 0.00000007660439393931
31700 98.96738 109.15114 1.09146 100.00457 0.00000008034879783736
31800 98.96084 108.94127 1.08940 100.00160 0.00000008227387127135
31900 98.95656 108.74433 1.08747 99.99734 0.00000008912819282614
32000 98.95953 108.70558 1.08709 99.99688 0.00000008883856139619
32100 98.95157 108.45915 1.08466 99.99349 0.00000008336465384673
32200 98.94723 108.20512 1.08218 99.98776 0.00000008673276852278
32300 98.94482 108.00790 1.08026 99.98337 0.00000008252384020579
32400 98.93820 107.83722 1.07856 99.98238 0.00000009552702806559
32500 98.94144 107.94620 1.07966 99.98151 0.00000009938916889496
32600 98.94149 107.77562 1.07798 99.97908 0.00000010961683472033
32700 98.93982 107.61760 1.07637 99.98202 0.00000009835667924563
32800 98.94305 107.50832 1.07527 99.98305 0.00000010007042305915
32900 98.94266 107.35849 1.07371 99.98878 0.00000011159585255882
33000 98.94588 107.20395 1.07215 99.98970 0.00000011253568743541
33100 98.94542 107.12583 1.07139 99.98758 0.00000010427729080220
33200 98.94277 106.96372 1.06979 99.98566 0.00000009945814838375
33300 98.94357 106.93927 1.06953 99.98745 0.00000009229343334027
33400 98.94322 106.86198 1.06874 99.98871 0.00000011795704324413
33500 98.94457 106.72229 1.06736 99.98722 0.00000011222529394672
33600 98.94779 106.98340 1.06993 99.99083 0.00000012010569605536
33700 98.95083 106.99264 1.07004 99.98902 0.00000011111129083474
33800 98.95085 106.84874 1.06857 99.99234 0.00000010399931227312
33900 98.95394 107.15074 1.07158 99.99301 0.00000009636400477575
34000 98.95700 107.54529 1.07551 99.99465 0.00000009790981891911
34100 98.96003 107.45037 1.07456 99.99510 0.00000010482069967566
34200 98.96255 107.36237 1.07366 99.99620 0.00000010492708213405
34300 98.96244 107.19698 1.07199 99.99828 0.00000010564832564341
34400 98.95933 106.98637 1.06988 99.99884 0.00000010559881502559
34500 98.95996 106.81726 1.06815 100.00168 0.00000009490881325291
34600 98.95422 106.60719 1.06608 99.99934 0.00000009356591590404
34700 98.95723 106.65614 1.06657 99.99914 0.00000009392935851338
34800 98.96024 106.86075 1.06860 100.00092 0.00000008540617102426
34900 98.96292 106.85537 1.06856 99.99911 0.00000008366237125301
35000 98.96550 106.89787 1.06898 99.99943 0.00000009437047765459
35100 98.96845 106.97725 1.06977 100.00026 0.00000010217412693692
35200 98.97138 107.06725 1.07064 100.00318 0.00000009638603160056
35300 98.97436 107.20923 1.07204 100.00448 0.00000010719725196395
35400 98.97720 107.67615 1.07663 100.01223 0.00000010410805373340
35500 98.98007 108.08456 1.08071 100.01282 0.00000010308252740288
35600 98.98296 108.46571 1.08450 100.01447 0.00000009762307229266
35700 98.98584 108.91635 1.08895 100.01950 0.00000009724091398766
35800 98.98862 109.20813 1.09190 100.01696 0.00000009256598332286
35900 98.98824 109.17782 1.09162 100.01485 0.00000009095261077618
36000 98.99050 109.26790 1.09249 100.01747 0.00000009401900058492
36100 98.99331 109.36618 1.09345 100.01972 0.00000008285056196655
36200 98.99535 109.28643 1.09267 100.01815 0.00000009707500225886
36300 98.99064 109.11110 1.09090 100.01926 0.00000008825810482449
36400 98.99289 109.03082 1.09013 100.01673 0.00000007785989453168
36500 98.99317 108.90596 1.08888 100.01649 0.00000007241997934671
36600 98.99053 108.77844 1.08763 100.01464 0.00000007352691966389
36700 98.99326 108.83591 1.08815 100.01905 0.00000008411687701937
36800 98.98976 108.74070 1.08720 100.01894 0.00000006483375614152
36900 98.99251 108.92673 1.08903 100.02211 0.00000007109096600288
37000 98.99521 109.00633 1.08982 100.02203 0.00000006467051605341
37100 98.99497 108.91671 1.08893 100.02175 0.00000004482818383167
37200 98.99001 108.84353 1.08822 100.02011 0.00000001776264468845
37300 98.98718 108.72549 1.08704 100.02021 0.00000001064886134827
37400 98.98934 108.74614 1.08718 100.02567 0.00000003105522239366
37500 98.99199 109.21338 1.09181 100.02995 0.00000000320999049563
37600 98.99471 109.50936 1.09476 100.03011 -0.00000000034512481761
37700 98.99497 109.45929 1.09429 100.02806 0.00000001367457969081
37800 98.98759 109.34720 1.09320 100.02444 0.00000002786144648326
37900 98.98795 109.37263 1.09347 100.02314 0.00000003296783290807
38000 98.99003 109.42189 1.09394 100.02547 0.00000002833483847553
38100 98.98766 109.35101 1.09326 100.02320 0.00000004408624931784
38200 98.98910 109.35530 1.09330 100.02330 0.00000005927437030095
38300 98.99065 109.24091 1.09214 100.02436 0.00000006088113480018
38400 98.98762 109.05831 1.09032 100.02388 0.00000004994684843496
38500 98.98733 108.90334 1.08876 100.02499 0.00000005573171790729
38600 98.98592 108.75212 1.08726 100.02383 0.00000005976676220598
38700 98.98855 108.90160 1.08870 100.02868 0.00000006288283316280
38800 98.99119 109.19283 1.09160 100.02969 0.00000007732754170320
38900 98.99374 109.16352 1.09128 100.03252 0.00000006822001807905
39000 98.99447 109.02306 1.08988 100.03208 0.00000008158008313330
39100 98.99259 108.88571 1.08849 100.03373 0.00000009315623117345
39200 98.99522 109.00562 1.08968 100.03449 0.00000009036398296303
39300 98.99363 108.84769 1.08808 100.03623 0.00000007800443313499
39400 98.99485 108.74482 1.08703 100.03891 0.00000003091165012847
39500 98.99596 108.64219 1.08601 100.03782 0.00000004377031359581
39600 98.99703 108.50472 1.08466 100.03530 0.00000002032302859334
39700 98.99335 108.30456 1.08269 100.03252 0.00000002299121604210
39800 98.99473 108.28502 1.08249 100.03357 0.00000000926436882764
39900 98.99725 108.45048 1.08413 100.03421 -0.00000000724473636637
40000 98.99977 108.67539 1.08635 100.03735 -0.00000001622414913527
40100 99.00226 109.11073 1.09074 100.03411 -0.00000003766571410324
40200 99.00474 109.34524 1.09305 100.03684 -0.00000004644280693356
40300 99.00589 109.38264 1.09343 100.03598 -0.00000003387856395420
40400 99.00288 109.19645 1.09162 100.03158 -0.00000003962819050685
40500 98.99947 109.07063 1.09035 100.03237 -0.00000005060304886229
40600 98.99834 108.92711 1.08890 100.03379 -0.00000004460957825358
40700 98.99423 108.72763 1.08694 100.03096 -0.00000005651956769270
40800 98.99067 108.56215 1.08529 100.03096 -0.00000004612768123025
40900 98.99313 108.98707 1.08949 100.03450 -0.00000003095193790159
41000 98.99558 109.30173 1.09264 100.03488 -0.00000003053605723835
41100 98.99802 109.37132 1.09327 100.04085 -0.00000002355334061122
41200 99.00045 109.43228 1.09388 100.04090 -0.00000005011715131786
41300 99.00287 109.63786 1.09587 100.04615 -0.00000006359744020301
41400 99.00528 109.79750 1.09747 100.04628 -0.00000009190567595851
41500 99.00031 109.65072 1.09602 100.04465 -0.00000009522999278033
41600 99.00040 109.59895 1.09545 100.04935 -0.00000009448443449855
41700 99.00288 109.77133 1.09716 100.05067 -0.00000011209908734600
41800 99.00523 109.88611 1.09835 100.04610 -0.00000013984575275572
41900 99.00757 110.11088 1.10061 100.04556 -0.00000012242698232967
42000 99.00846 110.03347 1.09980 100.04902 -0.00000013534422294015
42100 99.00789 109.93182 1.09878 100.04888 -0.00000012683193517660
42200 99.00634 109.79412 1.09744 100.04555 -0.00000014711901030751
42300 99.00838 109.74718 1.09693 100.04894 -0.00000014899873690410
42400 99.01072 109.79397 1.09741 100.04792 -0.00000015817042253730
42500 99.00913 109.64909 1.09596 100.04821 -0.00000016897737964428
42600 99.00897 109.48138 1.09427 100.04955 -0.00000014878500564919
42700 99.00898 109.37755 1.09322 100.05073 -0.00000014625757671638
42800 99.00955 109.39431 1.09338 100.05152 -0.00000013038200563642
42900 99.01019 109.23208 1.09179 100.04816 -0.00000014444790963353
43000 99.00962 109.08536 1.09035 100.04640 -0.00000014173029683207
43100 99.00668 108.90119 1.08850 100.04701 -0.00000013317682601155
43200 99.00556 108.75083 1.08702 100.04528 -0.00000012913194780140
43300 99.00401 108.61779 1.08571 100.04349 -0.00000013896860195928
43400 99.00632 108.59262 1.08548 100.04127 -0.00000016283179604670
43500 99.00552 108.52953 1.08483 100.04271 -0.00000014763278954888
43600 99.00297 108.43517 1.08391 100.04073 -0.00000016023845716973
43700 98.99686 108.29637 1.08256 100.03696 -0.00000015245895212956
43800 98.99386 108.18203 1.08146 100.03374 -0.00000015534124031547
43900 98.99153 108.04462 1.08008 100.03380 -0.00000015999718527837
44000 98.98745 107.88577 1.07853 100.03039 -0.00000016031414418194
44100 98.98972 107.90577 1.07870 100.03331 -0.00000016704254335309
44200 98.99202 107.99038 1.07954 100.03369 -0.00000016669339686359
44300 98.99429 108.03233 1.07995 100.03422 -0.00000013893426853429
44400 98.98679 107.87140 1.07837 100.03146 -0.00000012938703264354
44500 98.98410 107.75788 1.07727 100.02827 -0.00000011092608076524
44600 98.98508 107.70940 1.07681 100.02682 -0.00000012851484143539
44700 98.98431 107.64401 1.07611 100.03027 -0.00000012079897260264
44800 98.98657 107.82625 1.07791 100.03261 -0.00000011842590197375
44900 98.98887 108.32374 1.08287 100.03359 -0.00000011913647313122
45000 98.99108 108.97592 1.08936 100.03653 -0.00000013216303784702
45100 98.99331 109.59016 1.09553 100.03404 -0.00000013345236027362
45200 98.99435 109.59406 1.09560 100.03073 -0.00000014798571612573
45300 98.99385 109.57856 1.09545 100.03068 -0.00000015047814372338
45400 98.99010 109.50140 1.09471 100.02740 -0.00000016461852681005
45500 98.99211 109.55119 1.09520 100.02864 -0.00000015424990351676
45600 98.99267 109.47991 1.09450 100.02717 -0.00000012774478364008
45700 98.99162 109.48514 1.09452 100.02996 -0.00000014408293225188
45800 98.99039 109.41252 1.09381 100.02921 -0.00000015887954418758
45900 98.99184 109.45518 1.09420 100.03198 -0.00000017058323464880
46000 98.99402 109.55754 1.09519 100.03554 -0.00000016883194575712
46100 98.99522 109.64167 1.09603 100.03523 -0.00000017338157931590
46200 98.99742 110.08843 1.10049 100.03539 -0.00000019329561951054
46300 98.99844 110.21602 1.10180 100.03285 -0.00000020190960015043
46400 98.99768 110.19933 1.10164 100.03198 -0.00000022028537216556
46500 98.99934 110.33914 1.10299 100.03626 -0.00000024415408006462
46600 99.00083 110.46328 1.10423 100.03605 -0.00000023969735707396
46700 98.99228 110.39576 1.10362 100.03024 -0.00000024403537679518
46800 98.99142 110.49451 1.10460 100.03079 -0.00000023707245588866
46900 98.99360 110.64391 1.10610 100.03107 -0.00000023689899819601
47000 98.99571 110.85938 1.10823 100.03289 -0.00000022206842231753
47100 98.99762 111.00504 1.10968 100.03335 -0.00000024823586386447
47200 98.99977 111.07977 1.11041 100.03477 -0.00000024773966345037
47300 99.00191 111.18916 1.11148 100.03677 -0.00000024950186627848
47400 98.99898 111.13354 1.11093 100.03610 -0.00000024480699778451
47500 98.99797 111.11544 1.11076 100.03512 -0.00000024027357881096
47600 98.99933 111.10987 1.11069 100.03679 -0.00000023764816603489
47700 98.99972 111.09024 1.11050 100.03610 -0.00000023507232072006
47800 98.99811 111.07837 1.11038 100.03596 -0.00000023119648062675
47900 98.99971 111.15600 1.11114 100.03808 -0.00000021550879125698
48000 99.00179 111.50022 1.11456 100.03983 -0.00000021217329049250
48100 99.00386 111.70852 1.11664 100.03967 -0.00000021322124155176
48200 99.00285 111.76151 1.11720 100.03739 -0.00000022687473233418
48300 99.00019 111.77314 1.11730 100.03874 -0.00000020721191162920
48400 99.00139 111.83597 1.11793 100.03835 -0.00000022891335049735
48500 99.00058 111.89582 1.11854 100.03775 -0.00000022436783808644
48600 99.00205 111.99034 1.11945 100.04066 -0.00000021610017597595
48700 99.00238 112.02807 1.11981 100.04228 -0.00000021917327330812
48800 99.00323 112.07862 1.12031 100.04277 -0.00000020572799996899
48900 99.00519 112.21086 1.12160 100.04505 -0.00000019181365473742
49000 99.00562 112.29833 1.12246 100.04637 -0.00000018383586564141
49100 99.00306 112.30150 1.12252 100.04450 -0.00000018509923904730
49200 99.00174 112.32286 1.12272 100.04526 -0.00000018391259004602
49300 99.00377 112.40666 1.12355 100.04600 -0.00000016509871159087
49400 99.00086 112.41996 1.12371 100.04350 -0.00000013361915307541
49500 98.99856 112.44517 1.12399 100.04129 -0.00000011108774344848
49600 98.99954 112.55390 1.12508 100.04069 -0.00000010376346892826
49700 98.99969 112.61999 1.12574 100.04068 -0.00000008485154978644
49800 99.00171 113.03514 1.12982 100.04699 -0.00000008544296292712
49900 99.00370 113.57791 1.13526 100.04575 -0.00000009250386767690
50000 99.00522 113.76928 1.13720 100.04320 -0.00000010364539093644
50100 99.00722 114.03067 1.13980 100.04475 -0.00000011358721963006
50200 99.00920 114.22668 1.14176 100.04406 -0.00000011823510703834
50300 99.01116 114.52855 1.14475 100.04664 -0.00000010725386800914
50400 99.01312 115.20824 1.15155 100.04615 -0.00000011468517868707
50500 99.01507 115.80693 1.15753 100.04644 -0.00000008951498386978
50600 99.01702 116.40436 1.16349 100.04721 -0.00000009156958924450
50700 99.01901 116.74215 1.16685 100.04937 -0.00000009350489449389
50800 99.01934 116.74715 1.16688 100.05045 -0.00000011849924419494
50900 99.01921 116.68905 1.16630 100.05077 -0.00000011342177685947
51000 99.01915 116.55966 1.16499 100.05212 -0.00000011405518307583
51100 99.01825 116.46752 1.16408 100.05090 -0.00000012239829061400
51200 99.01535 116.33793 1.16282 100.04812 -0.00000011587988524298
51300 99.01428 116.30316 1.16246 100.04879 -0.00000011760320717258
51400 99.01620 116.70311 1.16645 100.04942 -0.00000011149559497881
51500 99.01810 117.17419 1.17115 100.05082 -0.00000011076666339704
51600 99.02002 117.44723 1.17387 100.05107 -0.00000010327856614367
51700 99.02132 117.46547 1.17409 100.04824 -0.00000011832661073186
51800 99.01852 117.34025 1.17286 100.04645 -0.00000012493919143708
51900 99.01364 117.22983 1.17181 100.04137 -0.00000012728797571526
52000 99.01374 117.17007 1.17119 100.04321 -0.00000012555322825847
52100 99.01440 117.14864 1.17097 100.04393 -0.00000012745069000175
52200 99.01480 117.10241 1.17054 100.04149 -0.00000013700814349704
52300 99.01248 117.01870 1.16972 100.03969 -0.00000015262747865563
52400 99.01011 116.95440 1.16909 100.03918 -0.00000015890763904736
52500 99.01186 116.92638 1.16877 100.04202 -0.00000014606467857448
52600 99.01199 116.84879 1.16802 100.03987 -0.00000020022720548241
52700 99.01018 116.77441 1.16730 100.03829 -0.00000026010530973508
52800 99.00721 116.66581 1.16625 100.03462 -0.00000024667978948401
52900 99.00758 116.65711 1.16614 100.03675 -0.00000023545327110241
53000 99.00948 116.75739 1.16713 100.03796 -0.00000021432640551211
53100 99.01132 117.02079 1.16972 100.04209 -0.00000020463572525387
53200 99.01320 117.44769 1.17398 100.04256 -0.00000021389787718817
53300 99.01502 117.68926 1.17638 100.04377 -0.00000022466086591066
53400 99.01687 118.00730 1.17954 100.04504 -0.00000022712649183632
53500 99.01870 118.42446 1.18372 100.04449 -0.00000022794588971919
53600 99.02053 118.62823 1.18569 100.04968 -0.00000024030752854287
53700 99.02236 118.92600 1.18866 100.05030 -0.00000023800721749012
53800 99.02421 119.02786 1.18969 100.04948 -0.00000021818202355917
53900 99.02457 118.97650 1.18916 100.05074 -0.00000024162221734514
54000 99.02326 118.90010 1.18842 100.04928 -0.00000025146458426661
54100 99.02093 118.82091 1.18763 100.04860 -0.00000024001997189771
54200 99.02230 118.82059 1.18758 100.05242 -0.00000022338495853091
54300 99.02411 118.98583 1.18924 100.05197 -0.00000023929359826980
54400 99.02441 118.97139 1.18911 100.05075 -0.00000020470548633966
54500 99.02547 118.93165 1.18871 100.05079 -0.00000022702900537297
54600 99.02528 118.88820 1.18829 100.04941 -0.00000019696310005202
54700 99.02248 118.77054 1.18715 100.04700 -0.00000015930704932998
54800 99.02253 118.67221 1.18617 100.04615 -0.00000018041954774617
54900 99.01981 118.56030 1.18507 100.04525 -0.00000018475721219602
55000 99.02061 118.55174 1.18499 100.04471 -0.00000020884219509298
55100 99.02007 118.57186 1.18519 100.04475 -0.00000020901373432025
55200 99.01969 118.50336 1.18453 100.04264 -0.00000021912569536653
55300 99.01680 118.41468 1.18365 100.04201 -0.00000022338491589835
55400 99.01277 118.29073 1.18243 100.04060 -0.00000023831816520214
55500 99.01454 118.48776 1.18437 100.04261 -0.00000024978777446449
55600 99.01632 118.78307 1.18731 100.04419 -0.00000026414592468882
55700 99.01809 119.07698 1.19021 100.04734 -0.00000027252272616352
55800 99.01958 119.18789 1.19135 100.04423 -0.00000027674930436206
55900 99.01961 119.07369 1.19022 100.04345 -0.00000026918328899228
56000 99.01831 118.99328 1.18939 100.04532 -0.00000025915154822087
56100 99.01473 118.90146 1.18850 100.04355 -0.00000025035002693130
56200 99.01182 118.79819 1.18748 100.04228 -0.00000022715656200489
56300 99.00816 118.72102 1.18672 100.04110 -0.00000021508867575903
56400 99.00991 118.95662 1.18906 100.04230 -0.00000018577030402867
56500 99.01055 118.99811 1.18949 100.04156 -0.00000022255166243212
56600 99.01073 118.95111 1.18899 100.04408 -0.00000022015025535893
56700 99.01223 118.95009 1.18895 100.04646 -0.00000022053379211684
56800 99.01316 118.90492 1.18848 100.04787 -0.00000020576553083629
56900 99.01163 118.84892 1.18795 100.04548 -0.00000017913188798957
57000 99.01035 118.78285 1.18728 100.04584 -0.00000019346377655438
57100 99.01106 118.78606 1.18732 100.04548 -0.00000016728326102111
57200 99.01007 118.74829 1.18696 100.04446 -0.00000016168917227333
57300 99.01043 118.69194 1.18639 100.04454 -0.00000018294389292350
57400 99.00754 118.61089 1.18560 100.04298 -0.00000018014115710230
57500 99.00529 118.54794 1.18500 100.04054 -0.00000012734426491079
57600 99.00608 118.60425 1.18558 100.03892 -0.00000016887959475298
57700 99.00694 118.61249 1.18563 100.04156 -0.00000015005112175004
57800 99.00298 118.56837 1.18522 100.03927 -0.00000015537861486337
57900 99.00012 118.53199 1.18487 100.03769 -0.00000016057958873716
58000 98.99986 118.54048 1.18496 100.03783 -0.00000017061779544747
58100 99.00159 118.73312 1.18686 100.03935 -0.00000019812436846678
58200 99.00327 118.83780 1.18793 100.03756 -0.00000017259876017306
58300 99.00124 118.83895 1.18796 100.03580 -0.00000020538644207591
58400 99.00296 118.97903 1.18934 100.03783 -0.00000016588175810739
58500 99.00462 119.31613 1.19269 100.03921 -0.00000016834829352774
58600 99.00637 119.68104 1.19632 100.04097 -0.00000016244455025571
58700 99.00803 119.80076 1.19754 100.03876 -0.00000017148610709228
58800 99.00841 119.84522 1.19798 100.03940 -0.00000018098334919614
58900 99.00686 119.87027 1.19823 100.03946 -0.00000016961210747013
59000 99.00854 120.00812 1.19961 100.03920 -0.00000020976007419904
59100 99.00824 120.06809 1.20023 100.03768 -0.00000018871389784181
59200 99.00800 120.10560 1.20060 100.03819 -0.00000016372308664359
59300 99.00853 120.19018 1.20145 100.03764 -0.00000012978783558992
59400 99.00821 120.23817 1.20193 100.03793 -0.00000014374363388470
59500 99.00681 120.27591 1.20231 100.03729 -0.00000010671202232970
59600 99.00803 120.36118 1.20316 100.03718 -0.00000011244155473378
59700 99.00712 120.40578 1.20361 100.03712 -0.00000010993146304372
59800 99.00873 120.67202 1.20625 100.03918 -0.00000011154990886553
59900 99.01040 121.00475 1.20955 100.04147 -0.00000010800356164964
60000 99.01203 121.51743 1.21465 100.04283 -0.00000010664187755083
60100 99.01368 122.05095 1.21997 100.04454 -0.00000010425813457005
60200 99.01533 122.88812 1.22830 100.04736 -0.00000008420335007031
60300 99.01695 123.88311 1.23820 100.05063 -0.00000010825097263023
60400 99.01859 124.90184 1.24838 100.05132 -0.00000012368137447538
60500 99.02021 125.80343 1.25737 100.05321 -0.00000014468983522420
60600 99.02181 126.71989 1.26654 100.05210 -0.00000015315440293762
60700 99.02346 127.49323 1.27431 100.04891 -0.00000017466966539814
60800 99.02441 127.73608 1.27670 100.05166 -0.00000019639054471554
60900 99.01950 127.84501 1.27785 100.04693 -0.00000017110203032189
61000 99.01618 127.89192 1.27834 100.04507 -0.00000014986646590387
61100 99.01629 127.99126 1.27933 100.04553 -0.00000015473618475426
61200 99.01294 128.06286 1.28009 100.04242 -0.00000016945918446254
61300 99.01271 128.13529 1.28081 100.04254 -0.00000015885763104961
61400 99.01271 128.30245 1.28247 100.04347 -0.00000014377815205080
61500 99.01153 128.38099 1.28324 100.04413 -0.00000016386726997553
61600 99.01292 128.55380 1.28495 100.04581 -0.00000018604600882099
61700 99.01403 128.71926 1.28662 100.04451 -0.00000018825699044100
61800 99.01375 128.84672 1.28790 100.04380 -0.00000020869606487395
61900 99.01479 129.00065 1.28941 100.04622 -0.00000017366085103276
62000 99.01633 129.40457 1.29343 100.04756 -0.00000016056199569903
62100 99.01613 129.78447 1.29727 100.04419 -0.00000015686219967392
62200 99.01479 129.89080 1.29834 100.04346 -0.00000013581421853814
62300 99.01584 130.05292 1.29997 100.04305 -0.00000014436594142353
62400 99.01571 130.20559 1.30152 100.04135 -0.00000015853370882724
62500 99.01592 130.35081 1.30298 100.04070 -0.00000015786892504366
62600 99.01459 130.47071 1.30420 100.03919 -0.00000016175985706468
62700 99.01406 130.59034 1.30541 100.03754 -0.00000013592236314253
62800 99.01563 130.86554 1.30813 100.04053 -0.00000012661132586800
62900 99.01719 131.35347 1.31298 100.04224 -0.00000010357544510953
63000 99.01876 131.88368 1.31831 100.04024 -0.00000010183435961153
63100 99.02032 132.27375 1.32221 100.03995 -0.00000010714785503296
63200 99.02186 132.60177 1.32548 100.04051 -0.00000008847283083924
63300 99.02188 132.80017 1.32747 100.03970 -0.00000007364192811110
63400 99.02289 132.90687 1.32856 100.03828 -0.00000007277674285433
63500 99.02369 133.06274 1.33012 100.03844 -0.00000004759485250361
63600 99.02372 133.22002 1.33169 100.03811 -0.00000003886097488248
63700 99.02397 133.34976 1.33299 100.03812 -0.00000004026674105262
63800 99.02275 133.46376 1.33412 100.03870 -0.00000004270302156328
63900 99.02238 133.60030 1.33548 100.03894 -0.00000004118928131902
64000 99.02256 133.71983 1.33669 100.03823 -0.00000003749823918042
64100 99.02363 133.97590 1.33923 100.03975 -0.00000001078447553482
64200 99.02251 134.07829 1.34027 100.03850 -0.00000001800344762160
64300 99.02408 134.39003 1.34336 100.04039 -0.00000002937321141872
64400 99.02555 134.71248 1.34654 100.04307 -0.00000004322976110416
64500 99.02215 134.83097 1.34774 100.04219 -0.00000002730905634962
64600 99.02292 134.96625 1.34909 100.04221 0.00000000252705945059
64700 99.02087 135.06655 1.35012 100.04062 0.00000001188527676277
64800 99.01941 135.18088 1.35128 100.03878 0.00000000994904780782
64900 99.02091 135.42275 1.35369 100.03978 0.00000003435263806750
65000 99.02246 135.74976 1.35693 100.04188 0.00000005508584877134
65100 99.02377 136.02190 1.35964 100.04240 0.00000006702731525365
65200 99.02526 136.59921 1.36538 100.04509 0.00000008688530783729
65300 99.02677 137.40665 1.37342 100.04734 0.00000009132537570622
65400 99.02827 138.21953 1.38153 100.04789 0.00000009270144119000
65500 99.02975 138.80844 1.38743 100.04718 0.00000010202217026745
65600 99.03125 139.40820 1.39343 100.04651 0.00000009353576047033
65700 99.03270 140.02963 1.39965 100.04624 0.00000010036188768936
65800 99.03416 140.31028 1.40244 100.04754 0.00000006850740419395
65900 99.03369 140.42806 1.40362 100.04700 0.00000004934599928674
66000 99.03412 140.57479 1.40506 100.04864 0.00000007124253897928
66100 99.03559 140.82707 1.40754 100.05213 0.00000006436914645747
66200 99.03530 140.95142 1.40880 100.05089 0.00000009118457455770
66300 99.03654 141.04682 1.40973 100.05229 0.00000010929542781923
66400 99.03605 141.13119 1.41055 100.05372 0.00000010948065209959
66500 99.03699 141.21705 1.41142 100.05313 0.00000012590550113600
66600 99.03471 141.24975 1.41177 100.05131 0.00000012602490073732
66700 99.03356 141.28846 1.41217 100.05063 0.00000014853387142466
66800 99.03419 141.33174 1.41262 100.04948 0.00000017732202195475
66900 99.03428 141.34056 1.41270 100.04979 0.00000017969284726860
67000 99.03463 141.40144 1.41331 100.04990 0.00000017564846643836
67100 99.03380 141.41383 1.41343 100.05039 0.00000019009755192201
67200 99.03417 141.46588 1.41397 100.04888 0.00000016729509866309
67300 99.03320 141.50300 1.41435 100.04842 0.00000015738859815428
67400 99.03249 141.57409 1.41506 100.04834 0.00000012197884302623
67500 99.03014 141.59551 1.41529 100.04692 0.00000013095873896418
67600 99.03128 141.74178 1.41673 100.04843 0.00000013718857871936
67700 99.03241 141.86840 1.41801 100.04728 0.00000015657471408304
67800 99.03359 141.95017 1.41883 100.04757 0.00000014996814456936
67900 99.03409 142.07224 1.42003 100.04892 0.00000018023084180641
68000 99.03502 142.28486 1.42213 100.05087 0.00000020893634200547
68100 99.03462 142.43578 1.42364 100.05012 0.00000019782396520895
68200 99.03369 142.50374 1.42437 100.04714 0.00000020044484472237
68300 99.03148 142.54811 1.42482 100.04615 0.00000018052625705423
68400 99.02623 142.58382 1.42522 100.04358 0.00000017485419334662
68500 99.02599 142.64794 1.42585 100.04448 0.00000017036163058037
68600 99.02740 142.81742 1.42754 100.04456 0.00000016751280895733
68700 99.02543 142.87373 1.42814 100.04166 0.00000017722655343277
68800 99.02448 142.94448 1.42886 100.04087 0.00000018246939248456
68900 99.02336 143.06483 1.43007 100.04061 0.00000020288723590056
69000 99.02408 143.19639 1.43138 100.04049 0.00000018473821228326
69100 99.02380 143.30900 1.43252 100.03954 0.00000020878738382635
69200 99.02370 143.39527 1.43341 100.03775 0.00000021284233753249
69300 99.02335 143.49466 1.43442 100.03690 0.00000020921561372234
69400 99.02176 143.57199 1.43522 100.03516 0.00000022419371248361
69500 99.02122 143.68344 1.43630 100.03688 0.00000021744455125372
69600 99.01746 143.75628 1.43704 100.03624 0.00000019447003296591
69700 99.01709 143.86783 1.43816 100.03571 0.00000019753167634917
69800 99.01589 143.97437 1.43922 100.03659 0.00000020143181700405
69900 99.01393 144.06939 1.44019 100.03516 0.00000022534192112289
70000 99.01513 144.20137 1.44149 100.03623 0.00000021502677327589
70100 99.01596 144.36228 1.44310 100.03643 0.00000020057709093635
70200 99.01736 144.75760 1.44699 100.04053 0.00000020898801267322
70300 99.01876 145.21648 1.45161 100.03838 0.00000022511494535138
70400 99.01926 145.32466 1.45268 100.03923 0.00000019477491264297
70500 99.02067 145.67829 1.45618 100.04106 0.00000016741603303672
70600 99.02204 146.03973 1.45979 100.04176 0.00000016091894394776
70700 99.02331 146.28432 1.46223 100.04198 0.00000016446128370262
70800 99.02380 146.43381 1.46373 100.04175 0.00000015990434576452
70900 99.02495 146.71160 1.46649 100.04260 0.00000017363947790727
71000 99.02637 147.05940 1.46997 100.04273 0.00000015207041315080
71100 99.02631 147.25232 1.47188 100.04401 0.00000015259348629115
71200 99.02766 147.60495 1.47540 100.04374 0.00000015986250900824
71300 99.02889 147.87132 1.47807 100.04351 0.00000017110048133873
71400 99.02706 147.97566 1.47911 100.04363 0.00000016867349472705
71500 99.02616 148.09438 1.48027 100.04547 0.00000015340580716838
71600 99.02441 148.21383 1.48148 100.04433 0.00000017524180861983
71700 99.02575 148.46674 1.48397 100.04668 0.00000017259461060348
71800 99.02711 148.83296 1.48763 100.04723 0.00000017955932207769
71900 99.02665 148.95574 1.48888 100.04574 0.00000019377677062948
72000 99.02543 149.02032 1.48957 100.04267 0.00000019589879229898
72100 99.02554 149.13287 1.49069 100.04298 0.00000023393610604217
72200 99.02483 149.12753 1.49064 100.04260 0.00000021907939640187
72300 99.02441 149.16023 1.49096 100.04285 0.00000023446276031791
72400 99.02232 149.16550 1.49105 100.04088 0.00000025067262754419
72500 99.02319 149.17739 1.49117 100.04083 0.00000024009528942770
72600 99.02220 149.17987 1.49120 100.03997 0.00000023997210973903
72700 99.02172 149.19966 1.49141 100.03964 0.00000020359584596008
72800 99.02290 149.30087 1.49241 100.04012 0.00000020543882328639
72900 99.02273 149.32340 1.49265 100.03930 0.00000021945768935439
73000 99.02407 149.44823 1.49387 100.04101 0.00000021996027044224
73100 99.02305 149.46062 1.49400 100.04059 0.00000020656577248701
73200 99.02405 149.54607 1.49484 100.04133 0.00000018104245214090
73300 99.02506 149.64376 1.49582 100.04108 0.00000019669661810440
73400 99.02536 149.71009 1.49646 100.04268 0.00000021073194034216
73500 99.02384 149.76374 1.49699 100.04306 0.00000023857609221523
73600 99.02518 149.97711 1.49910 100.04451 0.00000025635640099608
73700 99.02652 150.48844 1.50420 100.04539 0.00000031091786922843
73800 99.02784 150.93265 1.50865 100.04457 0.00000031868995620243
73900 99.02914 151.21117 1.51145 100.04352 0.00000032504249247722
74000 99.03011 151.36837 1.51303 100.04311 0.00000031461379990105
74100 99.03027 151.45053 1.51387 100.04209 0.00000031160533353614
74200 99.02963 151.51293 1.51448 100.04311 0.00000030237009696066
74300 99.03094 151.71251 1.51647 100.04342 0.00000031372778153127
74400 99.03175 151.90114 1.51836 100.04277 0.00000034812723015420
74500 99.03237 152.01248 1.51946 100.04383 0.00000034782081570484
74600 99.03364 152.26865 1.52201 100.04469 0.00000041252101823375
74700 99.03455 152.42442 1.52355 100.04565 0.00000038173186567292
74800 99.03587 152.63938 1.52570 100.04520 0.00000033300537438663
74900 99.03626 152.79901 1.52729 100.04551 0.00000033805662269515
75000 99.03277 152.83410 1.52766 100.04427 0.00000036358855481922
75100 99.03248 152.88387 1.52815 100.04479 0.00000036515612578114
75200 99.02918 152.92363 1.52856 100.04412 0.00000033710765023898
75300 99.02816 152.98195 1.52916 100.04329 0.00000034636047985259
75400 99.02669 153.03584 1.52970 100.04302 0.00000037024182120149
75500 99.02751 153.13401 1.53069 100.04256 0.00000040386319710706
75600 99.02827 153.23740 1.53171 100.04332 0.00000043590515019787
75700 99.02954 153.37007 1.53302 100.04439 0.00000041122277139038
75800 99.02864 153.45039 1.53384 100.04321 0.00000042120549892388
75900 99.02836 153.55296 1.53487 100.04287 0.00000038720364159417
76000 99.02967 153.87212 1.53804 100.04401 0.00000037520251794376
76100 99.03091 154.11261 1.54046 100.04297 0.00000038720116890545
76200 99.03219 154.35933 1.54292 100.04354 0.00000040235536857836
76300 99.03308 154.51077 1.54444 100.04337 0.00000037959568999213
76400 99.03353 154.63072 1.54564 100.04322 0.00000034880042676377
76500 99.03139 154.68249 1.54616 100.04315 0.00000032267971050715
76600 99.03186 154.82515 1.54757 100.04373 0.00000032561868579251
76700 99.03100 154.92936 1.54861 100.04432 0.00000033436302260270
76800 99.02910 154.99168 1.54924 100.04352 0.00000031358993624053
76900 99.02721 155.05136 1.54985 100.04280 0.00000032235672620118
77000 99.02823 155.19611 1.55126 100.04538 0.00000033264495868934
77100 99.02948 155.43689 1.55363 100.04750 0.00000034379456792522
77200 99.02987 155.61422 1.55541 100.04722 0.00000037050656942483
77300 99.03099 155.71409 1.55639 100.04825 0.00000039535456153317
77400 99.02783 155.79749 1.55727 100.04527 0.00000035287715149934
77500 99.02299 155.85511 1.55786 100.04435 0.00000038682372860421
77600 99.02416 156.02549 1.55953 100.04621 0.00000039936887219483
77700 99.02540 156.24652 1.56173 100.04721 0.00000038392059309444
77800 99.02575 156.35450 1.56280 100.04780 0.00000040562252934251
77900 99.02537 156.49118 1.56419 100.04644 0.00000038959228731983
78000 99.02479 156.59213 1.56521 100.04514 0.00000040143632418221
78100 99.02035 156.68244 1.56614 100.04391 0.00000037746508496639
78200 99.02000 156.81086 1.56745 100.04210 0.00000041211686152565
78300 99.02089 156.96811 1.56902 100.04221 0.00000041197489508704
78400 99.01885 157.07463 1.57011 100.04073 0.00000039739657609061
78500 99.01910 157.22813 1.57164 100.04090 0.00000039404031326740
78600 99.01778 157.32068 1.57257 100.04043 0.00000039072489244063
78700 99.01642 157.43557 1.57373 100.04006 0.00000043213185563218
78800 99.01639 157.52043 1.57455 100.04175 0.00000041330724798172
78900 99.01604 157.65370 1.57591 100.04008 0.00000042033801150865
79000 99.01493 157.74266 1.57679 100.04016 0.00000045275092475094
79100 99.01443 157.84084 1.57780 100.03870 0.00000044784889041694
79200 99.01517 157.94793 1.57886 100.03896 0.00000040299960346601
79300 99.01449 158.01332 1.57953 100.03810 0.00000042103462760679
79400 99.01419 158.08436 1.58025 100.03766 0.00000040710523308007
79500 99.01490 158.17770 1.58118 100.03782 0.00000043213361777816
79600 99.01494 158.21143 1.58150 100.03873 0.00000040828498981682
79700 99.01367 158.23078 1.58172 100.03689 0.00000035953229371444
79800 99.01480 158.28143 1.58223 100.03679 0.00000036782722645512
79900 99.01340 158.27642 1.58219 100.03656 0.00000033122762488347
80000 99.01394 158.29614 1.58237 100.03741 0.00000031134669598032
80100 99.01310 158.29948 1.58243 100.03573 0.00000027530930424291
80200 99.01267 158.35209 1.58299 100.03344 0.00000027006589675693
80300 99.01234 158.38139 1.58330 100.03267 0.00000026979654421666
80400 99.01350 158.46536 1.58413 100.03300 0.00000025272908033003
80500 99.01356 158.55909 1.58506 100.03348 0.00000020898454522467
80600 99.01478 158.71902 1.58666 100.03325 0.00000019847962562380
80700 99.01573 158.84607 1.58792 100.03387 0.00000021638248881573
80800 99.01616 158.89341 1.58838 100.03478 0.00000026486367232792
80900 99.01736 159.00646 1.58946 100.03802 0.00000027284792736282
81000 99.01856 159.34754 1.59284 100.04009 0.00000025220376187463
81100 99.01980 159.76529 1.59703 100.03885 0.00000021729439936280
81200 99.02099 160.26234 1.60197 100.04060 0.00000023933944248711
81300 99.02220 160.93862 1.60872 100.04114 0.00000027903786303796
81400 99.02341 161.70040 1.61635 100.04041 0.00000027295919835524
81500 99.02462 162.22951 1.62170 100.03696 0.00000025828575189735
81600 99.02577 162.46783 1.62410 100.03586 0.00000024211325921897
81700 99.02285 162.50005 1.62444 100.03442 0.00000022412416456064
81800 99.02330 162.56734 1.62512 100.03410 0.00000019120670913253
81900 99.02409 162.71140 1.62653 100.03576 0.00000020942900391674
82000 99.02528 163.03405 1.62976 100.03571 0.00000019873618839483
82100 99.02636 163.16266 1.63106 100.03453 0.00000022757018314223
82200 99.02754 163.12483 1.63066 100.03608 0.00000025666375336186
82300 99.02394 162.95447 1.62899 100.03402 0.00000027269047109257
82400 99.02299 162.79959 1.62748 100.03170 0.00000024645177632010
82500 99.02196 162.64213 1.62591 100.03118 0.00000023408244942402
82600 99.02251 162.58108 1.62528 100.03288 0.00000021341946876419
82700 99.02369 162.55526 1.62503 100.03195 0.00000021577443476417
82800 99.02321 162.44048 1.62390 100.03127 0.00000023413838334818
82900 99.02427 162.34095 1.62288 100.03264 0.00000019280562923996
83000 99.02337 162.19538 1.62145 100.03133 0.00000021448462916851
83100 99.02452 162.16428 1.62112 100.03255 0.00000023001339855000
83200 99.02533 162.10661 1.62055 100.03214 0.00000018519250488680
83300 99.02646 162.02466 1.61970 100.03358 0.00000015477297665711
83400 99.02552 161.91955 1.61864 100.03450 0.00000018404955426377
83500 99.02669 161.93510 1.61877 100.03605 0.00000019343977442077
83600 99.02785 162.01633 1.61954 100.03823 0.00000020236532805029
83700 99.02902 161.97869 1.61918 100.03720 0.00000020512973719633
83800 99.03019 161.98767 1.61925 100.03844 0.00000022502314322992
83900 99.02981 161.87296 1.61811 100.03816 0.00000019081372215624
84000 99.02996 161.77359 1.61711 100.03874 0.00000013108140706208
84100 99.02898 161.68744 1.61626 100.03825 0.00000014858787267258
84200 99.02961 161.61950 1.61557 100.03869 0.00000013441615465126
84300 99.02841 161.50567 1.61444 100.03824 0.00000013466262771544
84400 99.02835 161.43184 1.61367 100.03993 0.00000015358364180429
84500 99.02953 161.36924 1.61304 100.04070 0.00000019489149849505
84600 99.02716 161.25409 1.61191 100.03926 0.00000020815843981836
84700 99.02719 161.20704 1.61144 100.03932 0.00000023293878825825
84800 99.02718 161.18462 1.61122 100.03913 0.00000023884484789960
84900 99.02832 161.22538 1.61163 100.03885 0.00000027372010436011
85000 99.02947 161.31622 1.61250 100.04114 0.00000031235524033946
85100 99.03062 161.54333 1.61475 100.04231 0.00000030585400168093
85200 99.03174 161.90356 1.61837 100.04101 0.00000032430051533083
85300 99.03289 162.16362 1.62097 100.04111 0.00000027839470817526
85400 99.03401 162.49385 1.62425 100.04267 0.00000024577448698437
85500 99.03515 162.86666 1.62798 100.04187 0.00000027848713557432
85600 99.03627 163.25198 1.63181 100.04352 0.00000032224946266979
85700 99.03739 163.51033 1.63440 100.04328 0.00000032948491934803
85800 99.03835 163.55996 1.63491 100.04233 0.00000030438297926594
85900 99.03786 163.46057 1.63392 100.04227 0.00000027208758979214
86000 99.03734 163.37383 1.63306 100.04162 0.00000027415600811764
86100 99.03608 163.30073 1.63232 100.04237 0.00000026247434448123
86200 99.03722 163.30799 1.63239 100.04224 0.00000031659996579947
86300 99.03670 163.23770 1.63169 100.04214 0.00000031441894066120
86400 99.03611 163.16298 1.63096 100.04095 0.00000031900444241728
86500 99.03613 163.08557 1.63019 100.04067 0.00000029394220746326
86600 99.03637 163.04243 1.62973 100.04255 0.00000030097908165772
86700 99.03668 163.00419 1.62933 100.04339 0.00000034837222528949
86800 99.03780 163.10855 1.63034 100.04579 0.00000032393847959611
86900 99.03888 163.31817 1.63242 100.04669 0.00000033600682058932
87000 99.03998 163.52506 1.63449 100.04644 0.00000034793046665982
87100 99.03873 163.42567 1.63354 100.04371 0.00000033615501138229
87200 99.03780 163.35103 1.63278 100.04454 0.00000028612990377042
87300 99.03678 163.28798 1.63219 100.04220 0.00000032838576657923
87400 99.03549 163.21098 1.63142 100.04216 0.00000035587731872511
87500 99.03645 163.17949 1.63112 100.04122 0.00000037657767393284
87600 99.03571 163.12645 1.63061 100.04000 0.00000038174684391379
87700 99.03527 163.06400 1.63001 100.03835 0.00000030723242616659
87800 99.03481 162.98219 1.62921 100.03739 0.00000029053364869469
87900 99.03133 162.87872 1.62820 100.03619 0.00000027484225029184
88000 99.03133 162.79309 1.62734 100.03628 0.00000029280633384587
88100 99.03094 162.72485 1.62665 100.03701 0.00000028874180202365
88200 99.03202 162.75662 1.62695 100.03803 0.00000029047839689156
88300 99.03111 162.67444 1.62615 100.03683 0.00000033703221902215
88400 99.03206 162.66210 1.62603 100.03613 0.00000032062416721601
88500 99.03056 162.58090 1.62525 100.03462 0.00000032515671932742
88600 99.03072 162.53432 1.62481 100.03265 0.00000032341293376703
88700 99.03164 162.56740 1.62514 100.03285 0.00000029730767892033
88800 99.03230 162.53653 1.62483 100.03324 0.00000031424994517693
88900 99.03113 162.45849 1.62405 100.03312 0.00000035859739000443
89000 99.03177 162.41596 1.62363 100.03292 0.00000033925417142200
89100 99.03149 162.37441 1.62320 100.03370 0.00000037763362570331
89200 99.02949 162.29359 1.62239 100.03376 0.00000035577599533099
89300 99.03059 162.31260 1.62256 100.03493 0.00000032571196584286
89400 99.03167 162.36716 1.62310 100.03530 0.00000037479142633856
89500 99.03274 162.43893 1.62382 100.03511 0.00000036430859040593
89600 99.03359 162.44180 1.62383 100.03614 0.00000037731149404863
89700 99.03219 162.34357 1.62288 100.03401 0.00000036750182630385
89800 99.03218 162.27524 1.62220 100.03401 0.00000036259956459617
89900 99.03306 162.23088 1.62175 100.03424 0.00000038886867059773
90000 99.03292 162.16479 1.62109 100.03414 0.00000038595663909291
90100 99.03232 162.08431 1.62028 100.03503 0.00000036825511529059
90200 99.02898 161.97821 1.61923 100.03390 0.00000040282714053319
90300 99.02662 161.88206 1.61832 100.03070 0.00000040840646420293
90400 99.02605 161.81026 1.61760 100.03095 0.00000040046685967354
90500 99.02428 161.72701 1.61680 100.02938 0.00000043019124973398
90600 99.02509 161.68869 1.61639 100.03092 0.00000043358983248254
90700 99.02456 161.62509 1.61576 100.03015 0.00000040549844015914
90800 99.02481 161.56377 1.61514 100.03065 0.00000039464200085604
90900 99.02586 161.56100 1.61508 100.03253 0.00000034275205962331
91000 99.02692 161.60890 1.61555 100.03357 0.00000034811398563761
91100 99.02777 161.59120 1.61537 100.03336 0.00000040683593738322
91200 99.02596 161.52529 1.61472 100.03319 0.00000042040772996188
91300 99.02388 161.44613 1.61395 100.03153 0.00000038598520291089
91400 99.02310 161.38244 1.61333 100.03079 0.00000043898941726184
91500 99.02417 161.38460 1.61332 100.03238 0.00000045157759132053
91600 99.02458 161.32849 1.61277 100.03224 0.00000041736231537470
91700 99.02425 161.26624 1.61217 100.03048 0.00000040950419588626
91800 99.02409 161.23263 1.61182 100.03136 0.00000040177658888751
91900 99.02375 161.14704 1.61099 100.03012 0.00000041561298758097
92000 99.02479 161.14155 1.61094 100.02980 0.00000040860979311219
92100 99.02559 161.08186 1.61032 100.03122 0.00000039881774682726
92200 99.02528 161.01678 1.60966 100.03170 0.00000045511288249145
92300 99.02419 160.93962 1.60890 100.03086 0.00000043016598283430
92400 99.02526 161.10803 1.61056 100.03216 0.00000043297666252329
92500 99.02633 161.48537 1.61431 100.03369 0.00000042212164430566
92600 99.02692 161.57603 1.61523 100.03307 0.00000041896643665496
92700 99.02748 161.55264 1.61499 100.03314 0.00000040123271105585
92800 99.02730 161.48238 1.61431 100.03196 0.00000036961705518479
92900 99.02636 161.45648 1.61407 100.03057 0.00000035711852319764
93000 99.02740 161.44424 1.61396 100.02966 0.00000029321640226954
93100 99.02720 161.45763 1.61408 100.03076 0.00000027480734843266
93200 99.02827 161.60331 1.61553 100.03103 0.00000027535344315766
93300 99.02836 161.55874 1.61510 100.03045 0.00000032071520195132
93400 99.02921 161.54540 1.61495 100.03096 0.00000030937999895286
93500 99.03026 161.73649 1.61684 100.03253 0.00000030011264584573
93600 99.03130 161.92644 1.61873 100.03301 0.00000030602106448896
93700 99.03232 162.13369 1.62082 100.03179 0.00000032286627060785
93800 99.03218 162.09356 1.62045 100.03018 0.00000035968301403955
93900 99.03137 162.05192 1.62004 100.02940 0.00000036562579452948
94000 99.03235 162.05661 1.62008 100.03000 0.00000035730738545681
94100 99.03309 162.09089 1.62041 100.03070 0.00000037028124211247
94200 99.03271 162.05131 1.62000 100.03156 0.00000032873711575121
94300 99.02908 161.98937 1.61942 100.02896 0.00000029290592351572
94400 99.02998 162.02155 1.61975 100.02870 0.00000028889087388961
94500 99.03082 162.05772 1.62011 100.02899 0.00000030453011845566
94600 99.02935 161.99570 1.61950 100.02827 0.00000024646365659464
94700 99.03007 162.02074 1.61976 100.02782 0.00000020986269078094
94800 99.03108 162.10038 1.62055 100.02820 0.00000022545626165993
94900 99.03110 162.08246 1.62037 100.02792 0.00000022778860397921
95000 99.03077 162.06606 1.62021 100.02772 0.00000022652486109109
95100 99.03179 162.08763 1.62041 100.02859 0.00000022093172447057
95200 99.03284 162.11778 1.62069 100.02994 0.00000020389947508193
95300 99.03319 162.12370 1.62075 100.02978 0.00000017346627601000
95400 99.03422 162.18736 1.62136 100.03176 0.00000015891444604677
95500 99.03522 162.19474 1.62144 100.03134 0.00000015630203620276
95600 99.03548 162.12316 1.62072 100.03144 0.00000017971916577153
95700 99.03152 161.99316 1.61946 100.02902 0.00000019091376657343
95800 99.03252 161.99133 1.61944 100.02931 0.00000014332454156829
95900 99.03356 162.10413 1.62058 100.02854 0.00000011717568781933
96000 99.03455 162.23777 1.62189 100.03008 0.00000011287738743704
96100 99.03557 162.38244 1.62331 100.03194 0.00000009489073704572
96200 99.03655 162.62591 1.62573 100.03262 0.00000007614931973876
96300 99.03755 162.83232 1.62782 100.03118 0.00000006407060482161
96400 99.03855 162.87391 1.62821 100.03241 0.00000004522024710241
96500 99.03955 162.81460 1.62760 100.03355 0.00000005372396572056
96600 99.03908 162.72788 1.62675 100.03249 0.00000003667128112284
96700 99.03943 162.65247 1.62599 100.03313 0.00000009829048508436
96800 99.04039 162.68562 1.62630 100.03423 0.00000007104711130523
96900 99.04082 162.63279 1.62577 100.03402 0.00000005828508164996
97000 99.03876 162.53041 1.62476 100.03342 0.00000000897847485248
97100 99.03935 162.46841 1.62413 100.03401 0.00000000032355274016
97200 99.03947 162.38318 1.62327 100.03490 0.00000002445293034725
97300 99.04048 162.38324 1.62325 100.03618 -0.00000002900850404330
97400 99.04140 162.35034 1.62293 100.03541 -0.00000001788126269275
97500 99.04036 162.22934 1.62173 100.03458 -0.00000002251726982649
97600 99.03938 162.11240 1.62057 100.03419 -0.00000003323933128740
97700 99.04035 162.10450 1.62047 100.03546 -0.00000001553223683004
97800 99.04010 162.00107 1.61944 100.03524 0.00000000851838422022
97900 99.04081 161.93229 1.61875 100.03568 0.00000000150021151057
98000 99.04031 161.81643 1.61757 100.03692 0.00000005282754500513
98100 99.04128 161.73608 1.61677 100.03642 0.00000002828832634805
98200 99.04194 161.62626 1.61567 100.03661 0.00000003349009602971
98300 99.04286 161.58385 1.61524 100.03680 0.00000006303753252723
98400 99.04087 161.45156 1.61393 100.03601 0.00000002685519007173
98500 99.03850 161.32511 1.61269 100.03485 0.00000007446263339261
98600 99.03820 161.24220 1.61186 100.03479 0.00000007936404244901
98700 99.03716 161.13802 1.61085 100.03312 0.00000008988152444545
98800 99.03784 161.09197 1.61038 100.03342 0.00000006070868607821
98900 99.03663 161.01156 1.60960 100.03212 0.00000006919455586285
99000 99.03761 161.09603 1.61043 100.03270 0.00000008382463079215
99100 99.03858 161.24366 1.61190 100.03319 0.00000011217642281736
99200 99.03956 161.24463 1.61192 100.03287 0.00000008156149533534
99300 99.04051 161.26005 1.61208 100.03229 0.00000009801402711673
99400 99.04149 161.22125 1.61171 100.03141 0.00000008573724130656
99500 99.04054 161.12288 1.61072 100.03132 0.00000006245645067793
99600 99.04021 161.02391 1.60973 100.03169 0.00000005525620849767
99700 99.03958 160.90496 1.60853 100.03259 -0.00000000116429532682
99800 99.03954 160.87557 1.60821 100.03391 0.00000002407304577901
99900 99.04050 160.92844 1.60874 100.03389 0.00000004238702899784
100000 99.04147 161.03200 1.60977 100.03392 0.00000004865094638262
