#Arquivo Dados/Coleta85.txt 
#Parâmetros(Ocupação: 85.000%, Capacidade: 415058.824 bps)
#Coleta|Ocupação|E(n)|E(w)|lambda|Little

100 83.77473 4.79917 0.04803 99.93000 -0.00000000001745537048
200 84.18412 5.13544 0.05135 100.00500 0.00000000001019007101
300 83.87476 5.01957 0.05053 99.34667 -0.00000000004690647870
400 84.11232 5.14403 0.05171 99.47000 -0.00000000014940138016
500 84.32193 5.40284 0.05428 99.53600 -0.00000000008002132290
600 84.23683 5.40642 0.05437 99.43667 -0.00000000017047518952
700 84.32870 5.41783 0.05442 99.55857 -0.00000000008170708554
800 84.47140 5.37891 0.05396 99.69125 -0.00000000007268674551
900 84.39671 5.33678 0.05361 99.55000 -0.00000000009385470179
1000 84.50315 5.35601 0.05371 99.72200 0.00000000016150814020
1100 84.67489 5.45600 0.05465 99.82636 0.00000000005953815219
1200 84.92939 5.58076 0.05581 100.00167 -0.00000000029477931207
1300 84.93064 5.56060 0.05566 99.90846 -0.00000000025433521955
1400 85.01203 5.54750 0.05547 100.00071 -0.00000000003505906676
1500 85.04447 5.53301 0.05530 100.05000 0.00000000029872104790
1600 85.05578 5.56018 0.05558 100.04750 0.00000000075601214178
1700 84.96371 5.58584 0.05585 100.02235 -0.00000000014499690337
1800 85.01982 5.61118 0.05607 100.08111 -0.00000000110242037721
1900 85.07771 5.59841 0.05592 100.11684 -0.00000000098586738773
2000 85.00241 5.56425 0.05560 100.08300 -0.00000000180022574625
2100 85.05610 5.59264 0.05586 100.12714 -0.00000000093205709817
2200 85.07477 5.57805 0.05571 100.11773 -0.00000000016928947133
2300 85.07540 5.57591 0.05570 100.10174 0.00000000073125416833
2400 85.05143 5.56709 0.05561 100.11000 0.00000000042349412865
2500 85.09640 5.55440 0.05544 100.17920 -0.00000000069657168922
2600 85.02021 5.55291 0.05545 100.14077 -0.00000000085581408626
2700 85.03452 5.54236 0.05535 100.13259 -0.00000000118254117609
2800 84.99815 5.52284 0.05518 100.08964 -0.00000000126335830686
2900 85.01024 5.52074 0.05516 100.09103 -0.00000000022990320758
3000 84.98272 5.50552 0.05502 100.06800 0.00000000059480331771
3100 85.05845 5.57315 0.05567 100.11194 -0.00000000029006574920
3200 85.11847 5.58642 0.05578 100.15250 -0.00000000023829738183
3300 85.11758 5.58472 0.05576 100.14818 -0.00000000132880106918
3400 85.09523 5.57032 0.05561 100.17000 -0.00000000203147454414
3500 85.10815 5.57045 0.05561 100.17314 -0.00000000389782783827
3600 85.06634 5.55019 0.05543 100.13583 -0.00000000511741760079
3700 85.05062 5.54133 0.05534 100.13054 -0.00000000645181152947
3800 85.03440 5.52235 0.05516 100.11263 -0.00000000587048809564
3900 85.03359 5.53915 0.05531 100.14538 -0.00000000520128295989
4000 85.05046 5.53606 0.05528 100.14775 -0.00000000508613418049
4100 85.05195 5.52480 0.05517 100.13732 -0.00000000564931923464
4200 85.07782 5.52020 0.05512 100.14500 -0.00000000462095073317
4300 85.03875 5.49876 0.05494 100.09140 -0.00000000559671597955
4400 85.03830 5.53235 0.05527 100.10523 -0.00000000619994011686
4500 85.02059 5.53278 0.05528 100.08756 -0.00000000735686445097
4600 85.04434 5.53135 0.05527 100.08587 -0.00000000849953529780
4700 85.03918 5.54219 0.05539 100.06170 -0.00000000987540005326
4800 85.05194 5.54296 0.05538 100.09146 -0.00000000887193518651
4900 84.99556 5.52426 0.05522 100.04265 -0.00000001130551474660
5000 84.98315 5.51748 0.05517 100.00040 -0.00000001363978885394
5100 85.00659 5.53482 0.05534 100.01510 -0.00000001568242069538
5200 85.02198 5.54461 0.05544 100.01712 -0.00000001489912992980
5300 84.99481 5.53914 0.05540 99.98415 -0.00000001537644500615
5400 84.98013 5.53103 0.05533 99.96852 -0.00000001528738380330
5500 84.97986 5.53728 0.05539 99.97473 -0.00000001451290376764
5600 85.00095 5.56824 0.05569 99.99143 -0.00000001478098088370
5700 85.01112 5.55170 0.05553 99.97860 -0.00000001641323787993
5800 85.01733 5.54047 0.05542 99.97017 -0.00000001593255838372
5900 85.05998 5.58610 0.05586 99.99780 -0.00000001413960593055
6000 85.07582 5.59895 0.05597 100.02783 -0.00000001705057872670
6100 85.08139 5.59719 0.05596 100.02197 -0.00000001763209844796
6200 85.06941 5.58564 0.05584 100.03016 -0.00000001839814878224
6300 85.04991 5.57094 0.05569 100.04032 -0.00000001734592647296
6400 85.02150 5.56243 0.05561 100.02516 -0.00000001724459419705
6500 85.02314 5.55399 0.05553 100.01077 -0.00000001610605426805
6600 85.05175 5.56789 0.05567 100.01545 -0.00000001496231138987
6700 85.03854 5.56223 0.05562 100.00940 -0.00000001554859530017
6800 85.03051 5.55874 0.05557 100.02735 -0.00000001751686173890
6900 85.02452 5.55310 0.05552 100.02841 -0.00000001511050840008
7000 85.02353 5.55904 0.05558 100.02657 -0.00000001526764226156
7100 85.03435 5.55530 0.05554 100.02986 -0.00000001513998437730
7200 85.03744 5.54968 0.05547 100.04986 -0.00000001330142396228
7300 85.07341 5.58371 0.05580 100.06342 -0.00000001057870857579
7400 85.07244 5.58155 0.05578 100.05730 -0.00000000876166605934
7500 85.06357 5.60470 0.05602 100.05067 -0.00000000589329829381
7600 85.05356 5.60274 0.05600 100.04658 -0.00000000719410220285
7700 85.03392 5.59238 0.05590 100.04221 -0.00000000734156113680
7800 85.00679 5.58483 0.05583 100.03474 -0.00000000655088872037
7900 85.01498 5.58963 0.05588 100.03380 -0.00000000400079080976
8000 85.03138 5.58878 0.05587 100.04063 -0.00000000417934487018
8100 85.03709 5.58279 0.05580 100.05840 -0.00000000392657373283
8200 85.04304 5.59378 0.05591 100.05598 -0.00000000221296136971
8300 85.04140 5.59708 0.05594 100.06120 -0.00000000604991168274
8400 85.04452 5.61432 0.05610 100.07238 -0.00000000620377527127
8500 85.06005 5.61809 0.05614 100.07753 -0.00000000445031300700
8600 85.03294 5.60696 0.05603 100.06360 -0.00000000642955910735
8700 85.05997 5.62855 0.05625 100.07172 -0.00000000318094350860
8800 85.06013 5.61991 0.05616 100.07148 -0.00000000411650891152
8900 85.05322 5.62215 0.05618 100.07472 -0.00000000144557787962
9000 85.04508 5.61629 0.05612 100.07689 0.00000000036127012493
9100 85.04672 5.61639 0.05613 100.06868 -0.00000000164363900268
9200 85.03047 5.61155 0.05608 100.05804 0.00000000196410887554
9300 85.05637 5.61613 0.05612 100.07258 0.00000000119894139061
9400 85.04658 5.61043 0.05606 100.07851 -0.00000000104825925717
9500 85.03766 5.61245 0.05608 100.07632 -0.00000000312089731835
9600 85.02873 5.60661 0.05603 100.07260 -0.00000000118093268497
9700 85.02392 5.60560 0.05602 100.05979 0.00000000232393393418
9800 85.00545 5.59604 0.05593 100.04816 0.00000000304947267438
9900 85.00772 5.59233 0.05590 100.03758 0.00000000086284401846
10000 85.00058 5.58816 0.05586 100.03660 0.00000000319538706606
10100 84.99939 5.59298 0.05591 100.02782 0.00000000523662979646
10200 84.99033 5.58974 0.05588 100.03627 0.00000000486083528983
10300 85.00940 5.60028 0.05597 100.05087 0.00000000736594785167
10400 85.00648 5.59581 0.05593 100.04971 0.00000000440376890509
10500 85.01134 5.60199 0.05599 100.04981 0.00000000391297128033
10600 85.01098 5.60225 0.05600 100.04783 0.00000000357515439475
10700 85.02972 5.61783 0.05615 100.05785 0.00000000209228634418
10800 85.01766 5.60923 0.05607 100.04778 0.00000000045291148609
10900 85.03125 5.61507 0.05611 100.06486 -0.00000000258568455536
11000 85.06124 5.62932 0.05625 100.07291 -0.00000000002372324559
11100 85.06088 5.63202 0.05628 100.07793 -0.00000000930090493512
11200 85.04720 5.62513 0.05621 100.06830 -0.00000001583095965429
11300 85.05610 5.62655 0.05623 100.06062 -0.00000001310134756238
11400 85.06440 5.63083 0.05628 100.05851 -0.00000001209927980028
11500 85.05638 5.62301 0.05620 100.04583 -0.00000001170047525534
11600 85.04449 5.61275 0.05611 100.02552 -0.00000001246245684428
11700 85.04800 5.61674 0.05615 100.02718 -0.00000001219330325597
11800 85.04661 5.61477 0.05614 100.01839 -0.00000001357121526269
11900 85.05684 5.62037 0.05619 100.02336 -0.00000001479199696064
12000 85.05040 5.61525 0.05614 100.01658 -0.00000001430436213923
12100 85.06526 5.61673 0.05615 100.02926 -0.00000001149399952993
12200 85.05814 5.61270 0.05611 100.02541 -0.00000001290831264100
12300 85.05240 5.60707 0.05606 100.02602 -0.00000001338009436580
12400 85.05904 5.60534 0.05603 100.03621 -0.00000001625478684986
12500 85.05145 5.60444 0.05603 100.03296 -0.00000001623729151135
12600 85.04473 5.60354 0.05602 100.03167 -0.00000001382606118483
12700 85.04645 5.59961 0.05597 100.03937 -0.00000001457813869621
12800 85.05519 5.60394 0.05602 100.03594 -0.00000001561970286446
12900 85.05020 5.59975 0.05598 100.03496 -0.00000001616622391509
13000 85.05456 5.59881 0.05597 100.03369 -0.00000001697198115380
13100 85.05502 5.60016 0.05598 100.03603 -0.00000001874920130263
13200 85.03453 5.59209 0.05591 100.02098 -0.00000002198620308036
13300 85.03903 5.58853 0.05587 100.02767 -0.00000001103744473596
13400 85.03822 5.58712 0.05585 100.03403 -0.00000000867936833515
13500 85.04593 5.59175 0.05590 100.03681 -0.00000001179987485500
13600 85.04948 5.59156 0.05589 100.04103 -0.00000000631521057670
13700 85.05818 5.59222 0.05590 100.03927 -0.00000000246563569561
13800 85.05310 5.59208 0.05590 100.03848 -0.00000000376270570257
13900 85.04867 5.58972 0.05588 100.03698 -0.00000000627730489811
14000 85.04182 5.58457 0.05582 100.03793 -0.00000000607758909865
14100 85.04907 5.58447 0.05582 100.04184 -0.00000000254256882215
14200 85.06211 5.59120 0.05588 100.05155 0.00000000369864316951
14300 85.06893 5.59045 0.05587 100.05741 0.00000000205942196629
14400 85.07909 5.59254 0.05589 100.06090 0.00000000659538823555
14500 85.07141 5.58923 0.05586 100.05407 0.00000000087239993007
14600 85.06437 5.58325 0.05581 100.04685 -0.00000000336371996923
14700 85.05034 5.57375 0.05571 100.04483 0.00000000434820979223
14800 85.04631 5.56843 0.05566 100.04446 0.00000000715974124432
14900 85.05816 5.57132 0.05569 100.04933 0.00000000664208954504
15000 85.05502 5.57293 0.05570 100.05153 0.00000000566060709417
15100 85.06370 5.57226 0.05569 100.05748 0.00000000658344134763
15200 85.07518 5.57640 0.05573 100.05632 0.00000000309267189635
15300 85.06328 5.56790 0.05565 100.05039 -0.00000000403223587853
15400 85.05821 5.57087 0.05568 100.04571 -0.00000000460748239561
15500 85.06343 5.57235 0.05570 100.04155 -0.00000000163754343419
15600 85.07131 5.57028 0.05568 100.04173 -0.00000000188681159585
15700 85.06186 5.56615 0.05564 100.04204 -0.00000000212688089363
15800 85.06449 5.57213 0.05570 100.04576 -0.00000000556428769727
15900 85.06500 5.57049 0.05568 100.04698 -0.00000000899463170612
16000 85.06698 5.56740 0.05565 100.04488 -0.00000000235212294086
16100 85.05962 5.56105 0.05559 100.03975 -0.00000000787566278859
16200 85.05160 5.55603 0.05553 100.04648 -0.00000000816666201331
16300 85.05330 5.55674 0.05554 100.04773 -0.00000001131088733786
16400 85.05977 5.55945 0.05556 100.05598 -0.00000002260955866973
16500 85.05860 5.55758 0.05555 100.05485 -0.00000002683253352842
16600 85.07019 5.56705 0.05563 100.06867 -0.00000002870169968361
16700 85.07085 5.57697 0.05573 100.06671 -0.00000002745742655463
16800 85.06861 5.57462 0.05571 100.07149 -0.00000002328191683887
16900 85.07927 5.58640 0.05582 100.07562 -0.00000002023426493025
17000 85.08630 5.58913 0.05585 100.07288 -0.00000001512779324031
17100 85.08281 5.58519 0.05581 100.07409 -0.00000001459388432323
17200 85.07848 5.58314 0.05579 100.06634 -0.00000001483682865455
17300 85.08216 5.58777 0.05584 100.06618 -0.00000000931335897292
17400 85.09071 5.59363 0.05590 100.06966 -0.00000000564855362484
17500 85.09890 5.59824 0.05594 100.07520 -0.00000000871973249161
17600 85.09305 5.59290 0.05589 100.07165 -0.00000001374905789220
17700 85.09548 5.59608 0.05592 100.07814 -0.00000002258316111892
17800 85.09380 5.59484 0.05591 100.07697 -0.00000002838795332138
17900 85.09000 5.59481 0.05591 100.07670 -0.00000003372550239078
18000 85.09095 5.59391 0.05590 100.07361 -0.00000003267965276166
18100 85.09264 5.59073 0.05587 100.07232 -0.00000002976937363286
18200 85.09176 5.59025 0.05586 100.07121 -0.00000003368070000676
18300 85.08660 5.58778 0.05583 100.07836 -0.00000002979022983851
18400 85.09059 5.58994 0.05585 100.08266 -0.00000003641292334322
18500 85.08781 5.58571 0.05581 100.08276 -0.00000003534159542795
18600 85.08183 5.58379 0.05579 100.08495 -0.00000002721737679678
18700 85.08047 5.58491 0.05580 100.08529 -0.00000003732253706090
18800 85.08339 5.58543 0.05581 100.08293 -0.00000003321692165770
18900 85.09190 5.59126 0.05586 100.09360 -0.00000002339797688933
19000 85.08286 5.58667 0.05582 100.08332 -0.00000003217533528499
19100 85.08293 5.58878 0.05584 100.08686 -0.00000002829409595506
19200 85.08422 5.59097 0.05586 100.09042 -0.00000003970312434376
19300 85.07885 5.58746 0.05583 100.08762 -0.00000002944837174113
19400 85.09081 5.59070 0.05585 100.09840 -0.00000002263158371818
19500 85.08051 5.58884 0.05583 100.09615 -0.00000001712247943431
19600 85.07590 5.58749 0.05583 100.08786 -0.00000002280867406057
19700 85.07853 5.58783 0.05583 100.09503 -0.00000003199757792061
19800 85.07366 5.58495 0.05580 100.08934 -0.00000004148533250259
19900 85.06837 5.58226 0.05577 100.09387 -0.00000003413233695682
20000 85.06900 5.58054 0.05576 100.08855 -0.00000002935424880945
20100 85.06678 5.58011 0.05575 100.08662 -0.00000002455479641839
20200 85.07395 5.58412 0.05580 100.07866 -0.00000003017732908006
20300 85.06742 5.57899 0.05575 100.07443 -0.00000002851512359570
20400 85.07452 5.58428 0.05580 100.08147 -0.00000003135480941552
20500 85.08307 5.58617 0.05581 100.08751 -0.00000003609199072940
20600 85.07127 5.58074 0.05576 100.07927 -0.00000004336127279458
20700 85.06794 5.58100 0.05577 100.07599 -0.00000005206750763875
20800 85.06939 5.58367 0.05579 100.07760 -0.00000004536470044059
20900 85.06015 5.58040 0.05576 100.07512 -0.00000004712642098781
21000 85.06165 5.58521 0.05581 100.07619 -0.00000004887283999722
21100 85.06142 5.58266 0.05578 100.07640 -0.00000004518122675989
21200 85.06128 5.58519 0.05581 100.07165 -0.00000004174867118678
21300 85.06657 5.58668 0.05583 100.07052 -0.00000003612121091123
21400 85.07959 5.59037 0.05586 100.08341 -0.00000003579241170115
21500 85.08016 5.58952 0.05585 100.08428 -0.00000004119261554081
21600 85.08223 5.58966 0.05585 100.08889 -0.00000003343481225215
21700 85.07875 5.59020 0.05585 100.08848 -0.00000003519531421858
21800 85.07324 5.58760 0.05583 100.08427 -0.00000004012674104104
21900 85.07748 5.58809 0.05583 100.08772 -0.00000003131231895992
22000 85.07481 5.58421 0.05580 100.08305 -0.00000002256891562524
22100 85.07886 5.58900 0.05585 100.07923 -0.00000001087806289490
22200 85.07324 5.58776 0.05584 100.07122 -0.00000000580521941629
22300 85.06746 5.58516 0.05582 100.06525 0.00000000087476603738
22400 85.05702 5.58105 0.05578 100.05348 -0.00000001286704698344
22500 85.04484 5.57484 0.05572 100.04462 -0.00000000652184617422
22600 85.03996 5.57042 0.05568 100.04602 -0.00000000481001638519
22700 85.03694 5.56703 0.05564 100.04881 0.00000000499366503703
22800 85.04313 5.57086 0.05568 100.05583 0.00000000334575744887
22900 85.04777 5.56882 0.05566 100.05109 0.00000000732595761832
23000 85.04577 5.56925 0.05566 100.05174 0.00000000116913589920
23100 85.03818 5.56490 0.05562 100.04372 -0.00000000266314614805
23200 85.03892 5.56562 0.05563 100.04728 -0.00000000928468235628
23300 85.03402 5.56312 0.05560 100.04970 0.00000000271228106641
23400 85.03886 5.56275 0.05560 100.05278 0.00000000528197663385
23500 85.04591 5.56599 0.05563 100.05991 -0.00000000522362864075
23600 85.05273 5.56795 0.05564 100.06220 -0.00000000361798146997
23700 85.04962 5.56368 0.05560 100.05886 -0.00000001393134141381
23800 85.05248 5.56435 0.05561 100.06508 -0.00000000541795674991
23900 85.05224 5.56615 0.05562 100.06728 -0.00000000635031938145
24000 85.05028 5.56469 0.05561 100.06833 -0.00000001222282630664
24100 85.05843 5.56969 0.05566 100.07178 -0.00000001109942360245
24200 85.06593 5.57057 0.05566 100.07364 -0.00000000112005160702
24300 85.06635 5.57077 0.05567 100.06712 -0.00000000702749947123
24400 85.06482 5.56847 0.05565 100.06422 -0.00000000993066606725
24500 85.06579 5.56634 0.05563 100.06355 -0.00000000813510148134
24600 85.06019 5.56313 0.05560 100.05683 -0.00000000469470329278
24700 85.05204 5.56021 0.05558 100.04676 -0.00000000839402591879
24800 85.05039 5.55954 0.05557 100.04891 -0.00000001320784104308
24900 85.04852 5.55590 0.05554 100.04245 -0.00000000265457611448
25000 85.05008 5.55808 0.05556 100.03808 -0.00000000608502048749
25100 85.05548 5.56584 0.05564 100.03920 -0.00000000140453870756
25200 85.05623 5.56825 0.05566 100.04131 0.00000000574365799366
25300 85.05546 5.56852 0.05566 100.03656 -0.00000000181999926241
25400 85.06056 5.56832 0.05566 100.03579 0.00000000386446519229
25500 85.06510 5.56799 0.05566 100.03424 -0.00000000068925221086
25600 85.06613 5.56599 0.05564 100.03477 -0.00000000698713975567
25700 85.06879 5.56668 0.05564 100.03953 -0.00000000653932730188
25800 85.06529 5.56548 0.05563 100.03946 -0.00000000370368535840
25900 85.06263 5.56340 0.05562 100.03402 -0.00000000620410389729
26000 85.06444 5.56453 0.05563 100.02969 -0.00000000416695744576
26100 85.06520 5.56525 0.05564 100.03134 0.00000000297942026606
26200 85.06406 5.56532 0.05564 100.03118 0.00000000518464915444
26300 85.06007 5.56363 0.05562 100.02886 0.00000000463980942556
26400 85.05571 5.56340 0.05562 100.02742 0.00000001307711983145
26500 85.05809 5.56614 0.05564 100.03245 0.00000000854557047347
26600 85.05352 5.56296 0.05561 100.02906 0.00000001547326178297
26700 85.05984 5.56393 0.05562 100.02921 -0.00000000109914033430
26800 85.06284 5.56806 0.05566 100.03205 -0.00000001084377920790
26900 85.05494 5.56459 0.05563 100.02948 -0.00000000194054283753
27000 85.05385 5.56367 0.05562 100.02970 -0.00000001126874327184
27100 85.05126 5.56375 0.05562 100.02745 -0.00000001024017315387
27200 85.05328 5.56572 0.05564 100.03000 -0.00000001091017143295
27300 85.05046 5.56556 0.05564 100.02872 -0.00000001786287473493
27400 85.04509 5.56381 0.05562 100.02748 -0.00000000917478271134
27500 85.05167 5.56433 0.05563 100.03273 -0.00000002570395363222
27600 85.04578 5.56083 0.05559 100.02692 -0.00000003350986066408
27700 85.05510 5.56656 0.05565 100.03217 -0.00000004456299151911
27800 85.05038 5.56423 0.05563 100.02522 -0.00000003502442069703
27900 85.05222 5.56535 0.05564 100.02416 -0.00000003307285201259
28000 85.05370 5.56393 0.05563 100.01982 -0.00000004483533455613
28100 85.06273 5.56923 0.05568 100.02662 -0.00000005640632672055
28200 85.05829 5.56717 0.05566 100.02475 -0.00000005069346720177
28300 85.05868 5.56708 0.05566 100.02367 -0.00000004985240753541
28400 85.05790 5.56518 0.05564 100.01898 -0.00000005725618557051
28500 85.05507 5.56388 0.05563 100.01730 -0.00000004790823915357
28600 85.04728 5.56141 0.05561 100.01378 -0.00000005319565765660
28700 85.05389 5.56397 0.05563 100.01641 -0.00000005109654654945
28800 85.05365 5.56369 0.05563 100.01969 -0.00000004908859718711
28900 85.05063 5.56186 0.05561 100.01730 -0.00000005793554080924
29000 85.05256 5.56335 0.05562 100.01821 -0.00000004801858377590
29100 85.04669 5.56343 0.05563 100.01155 -0.00000003932444858634
29200 85.04590 5.56303 0.05563 100.00603 -0.00000005789973478443
29300 85.04031 5.56049 0.05560 100.00730 -0.00000005496189992016
29400 85.03607 5.55894 0.05559 100.00429 -0.00000005721970453010
29500 85.04046 5.55825 0.05558 100.00498 -0.00000006307548527928
29600 85.03924 5.55798 0.05558 100.00530 -0.00000005241718525895
29700 85.03893 5.55753 0.05557 100.00515 -0.00000007212617791907
29800 85.04215 5.55838 0.05558 100.00564 -0.00000007730713758036
29900 85.04482 5.55878 0.05558 100.01177 -0.00000007074403551854
30000 85.04100 5.55621 0.05556 100.00880 -0.00000006271568064875
30100 85.04164 5.55770 0.05557 100.00857 -0.00000006081564229987
30200 85.03216 5.55451 0.05554 100.00500 -0.00000005855852247549
30300 85.02967 5.55289 0.05553 100.00271 -0.00000005713853479250
30400 85.02900 5.54959 0.05549 100.00303 -0.00000004334747405466
30500 85.02967 5.54992 0.05550 100.00115 -0.00000002766310558400
30600 85.02116 5.54760 0.05548 99.99395 -0.00000002499321460903
30700 85.02698 5.55069 0.05551 99.99857 -0.00000001596897725165
30800 85.02625 5.55095 0.05551 99.99864 -0.00000001433250851335
30900 85.02892 5.55250 0.05553 99.99958 -0.00000002028607681837
31000 85.03019 5.55240 0.05552 100.00035 -0.00000002186477576771
31100 85.03453 5.55277 0.05553 100.00170 -0.00000002855479408481
31200 85.03424 5.55258 0.05553 99.99830 -0.00000002331585324811
31300 85.03385 5.55295 0.05553 99.99607 -0.00000002663290565863
31400 85.04404 5.55646 0.05556 100.00420 -0.00000000599215965735
31500 85.04172 5.55471 0.05555 100.00079 -0.00000001294760387793
31600 85.03976 5.55352 0.05553 100.00345 -0.00000001906277447006
31700 85.03822 5.55408 0.05554 99.99940 -0.00000001844942332241
31800 85.04197 5.55760 0.05558 99.99774 -0.00000001519067538425
31900 85.03719 5.55462 0.05555 99.99605 -0.00000000652622933472
32000 85.03650 5.55891 0.05559 99.99950 -0.00000001556566875394
32100 85.03548 5.55769 0.05558 99.99417 -0.00000002228956486050
32200 85.03805 5.56015 0.05560 99.99500 -0.00000003172886486880
32300 85.04147 5.56219 0.05562 99.99700 -0.00000004399670316957
32400 85.03783 5.55971 0.05560 99.99608 -0.00000003645521395867
32500 85.03892 5.55868 0.05559 100.00003 -0.00000004273723508419
32600 85.03780 5.55935 0.05559 99.99920 -0.00000004674034492780
32700 85.03462 5.55823 0.05559 99.99434 -0.00000003731722042488
32800 85.03441 5.55805 0.05558 99.99277 -0.00000004476993886726
32900 85.03200 5.55758 0.05558 99.99015 -0.00000004584299784227
33000 85.03057 5.55784 0.05558 99.99382 -0.00000003632389677932
33100 85.03131 5.55722 0.05557 99.99828 -0.00000002224080386526
33200 85.02512 5.55445 0.05555 99.99220 -0.00000002879613525408
33300 85.02649 5.55516 0.05556 99.99297 -0.00000003427034034331
33400 85.01951 5.55425 0.05555 99.98844 -0.00000004657676377917
33500 85.01905 5.55336 0.05554 99.98910 -0.00000004638471384766
33600 85.02034 5.55245 0.05553 99.99363 -0.00000004253217245065
33700 85.01717 5.55032 0.05551 99.99537 -0.00000004168410505656
33800 85.02415 5.55558 0.05556 99.99707 -0.00000003719506658229
33900 85.02647 5.55786 0.05558 100.00204 -0.00000003922922520161
34000 85.02456 5.55900 0.05559 100.00065 -0.00000002909440155463
34100 85.02622 5.56214 0.05562 100.00176 -0.00000004376668449879
34200 85.02794 5.56312 0.05563 100.00415 -0.00000005904082556185
34300 85.03532 5.56650 0.05566 100.01175 -0.00000005169576855479
34400 85.03159 5.56524 0.05565 100.00927 -0.00000004150050436635
34500 85.03447 5.56800 0.05567 100.00959 -0.00000004503612682782
34600 85.03213 5.56801 0.05568 100.00847 -0.00000003676645121686
34700 85.03171 5.56700 0.05567 100.00764 -0.00000003433559037092
34800 85.02877 5.56727 0.05567 100.00721 -0.00000003301678841439
34900 85.03484 5.57009 0.05570 100.00725 -0.00000002690807665573
35000 85.02773 5.56945 0.05569 100.00469 -0.00000002316688263448
35100 85.02493 5.56692 0.05567 100.00120 -0.00000001640862024033
35200 85.02484 5.56576 0.05566 99.99886 -0.00000000626337826048
35300 85.02157 5.56244 0.05563 99.99516 0.00000000466618299555
35400 85.01743 5.55955 0.05560 99.99212 0.00000001176002673020
35500 85.01925 5.56026 0.05561 99.99532 0.00000000690582524498
35600 85.02296 5.56260 0.05563 99.99997 0.00000000724509519046
35700 85.01830 5.56043 0.05561 99.99683 0.00000000752956896832
35800 85.01331 5.56016 0.05561 99.99341 0.00000002146389466162
35900 85.01275 5.56111 0.05561 99.99437 0.00000001577931030283
36000 85.01162 5.56272 0.05563 99.99733 0.00000001662460835661
36100 85.01440 5.56338 0.05563 99.99911 0.00000001775975722040
36200 85.01446 5.56389 0.05564 99.99680 0.00000001459728160569
36300 85.01118 5.56182 0.05562 99.99529 0.00000001195683196897
36400 85.00649 5.56078 0.05561 99.99179 0.00000001167988994411
36500 85.00992 5.56067 0.05561 99.99088 0.00000000485813256290
36600 85.00955 5.55930 0.05560 99.99339 0.00000000645839381974
36700 85.01113 5.55890 0.05559 99.99417 -0.00000000167712510546
36800 85.00666 5.55659 0.05557 99.99215 -0.00000001000857263733
36900 85.00943 5.55651 0.05557 99.99466 -0.00000000110052855717
37000 85.00698 5.55499 0.05555 99.99381 -0.00000000180682935280
37100 85.00854 5.55581 0.05556 99.99458 -0.00000000482352113806
37200 85.00571 5.55570 0.05556 99.99185 0.00000001165808161119
37300 85.00218 5.55421 0.05555 99.98525 0.00000000925111365291
37400 85.00351 5.55486 0.05556 99.98433 0.00000000086503870733
37500 85.00171 5.55389 0.05555 99.98603 0.00000001254899562042
37600 84.99529 5.55036 0.05551 99.98125 0.00000000142093981026
37700 84.99580 5.54942 0.05550 99.98406 0.00000000582598147503
37800 84.99630 5.54977 0.05551 99.98585 0.00000000600201577328
37900 84.99029 5.54725 0.05548 99.98380 0.00000000317774961900
38000 84.99626 5.55013 0.05551 99.98724 0.00000001969924223744
38100 84.99456 5.54906 0.05550 99.98934 0.00000000720841075719
38200 84.99139 5.54784 0.05549 99.98636 -0.00000001305136798635
38300 84.99184 5.54881 0.05550 99.98525 -0.00000002920059660738
38400 84.99553 5.54945 0.05550 99.99096 -0.00000005416593396035
38500 84.99535 5.54840 0.05549 99.99075 -0.00000006641882510650
38600 84.99632 5.54848 0.05549 99.98969 -0.00000006620385217815
38700 84.99894 5.55160 0.05552 99.99013 -0.00000008838037146575
38800 84.99647 5.54890 0.05550 99.98879 -0.00000012075456901073
38900 84.99404 5.54872 0.05549 99.99208 -0.00000011861354920484
39000 84.99938 5.55057 0.05551 99.99577 -0.00000011016099144001
39100 84.99794 5.54974 0.05550 99.99606 -0.00000012035080931838
39200 84.99564 5.54870 0.05549 99.99554 -0.00000011940196298355
39300 84.99907 5.55097 0.05551 99.99840 -0.00000012555930251068
39400 84.99572 5.54961 0.05550 99.99688 -0.00000011496751284312
39500 84.99548 5.54910 0.05549 99.99967 -0.00000011546457123757
39600 84.99820 5.54918 0.05549 100.00260 -0.00000014619039934161
39700 84.99242 5.54766 0.05548 99.99947 -0.00000013805436438474
39800 84.99609 5.54906 0.05549 100.00254 -0.00000015272652742482
39900 84.99257 5.54806 0.05548 99.99694 -0.00000013378813434883
40000 84.99020 5.54780 0.05548 99.99530 -0.00000012129402016114
40100 84.98723 5.54637 0.05547 99.98788 -0.00000012580335528867
40200 84.98729 5.54629 0.05547 99.98828 -0.00000013730457482097
40300 84.98516 5.54757 0.05548 99.98926 -0.00000012691859740954
40400 84.98776 5.54887 0.05549 99.98933 -0.00000014739125031582
40500 84.98707 5.54825 0.05549 99.99007 -0.00000016480929332374
40600 84.99233 5.55165 0.05552 99.99296 -0.00000016266912883367
40700 84.99267 5.55324 0.05553 99.99715 -0.00000016409304759435
40800 84.99318 5.55355 0.05554 99.99686 -0.00000017903375049144
40900 84.99192 5.55582 0.05556 99.99543 -0.00000019540735785029
41000 84.99511 5.55624 0.05556 99.99566 -0.00000020193692762405
41100 84.99116 5.55401 0.05554 99.99231 -0.00000018756456832136
41200 84.99571 5.55517 0.05556 99.99155 -0.00000019938062401081
41300 85.00027 5.55952 0.05560 99.99254 -0.00000017973183474851
41400 85.00128 5.55913 0.05559 99.99367 -0.00000017222926462779
41500 85.00118 5.55973 0.05560 99.99446 -0.00000017035497368312
41600 85.00281 5.56109 0.05561 99.99320 -0.00000018621279096465
41700 85.00051 5.56045 0.05561 99.99187 -0.00000016078502884653
41800 84.99639 5.55796 0.05559 99.98761 -0.00000018477881180701
41900 84.99519 5.55850 0.05559 99.99029 -0.00000018511755328632
42000 84.99304 5.55880 0.05560 99.98676 -0.00000019283304109052
42100 84.99429 5.55964 0.05560 99.98993 -0.00000018218932318348
42200 84.99430 5.55946 0.05560 99.98808 -0.00000018172655291693
42300 84.99354 5.55812 0.05559 99.98688 -0.00000015779126538717
42400 84.99471 5.55861 0.05559 99.98792 -0.00000016185450046891
42500 84.99166 5.55754 0.05558 99.98562 -0.00000015830756705526
42600 84.99633 5.55896 0.05559 99.99221 -0.00000017039366451144
42700 85.00039 5.56029 0.05561 99.99347 -0.00000016100689137488
42800 84.99921 5.55922 0.05559 99.99671 -0.00000018070600216191
42900 84.99722 5.55922 0.05559 99.99599 -0.00000021436973263178
43000 84.99201 5.55772 0.05558 99.99530 -0.00000019831152986427
43100 84.98866 5.55733 0.05558 99.99162 -0.00000019958889208027
43200 84.98762 5.55583 0.05556 99.98984 -0.00000020548873980175
43300 84.98997 5.55629 0.05557 99.99423 -0.00000022457488402239
43400 84.98929 5.55561 0.05556 99.99429 -0.00000021529982863200
43500 84.98608 5.55489 0.05555 99.99280 -0.00000019377033932955
43600 84.98999 5.55589 0.05556 99.99596 -0.00000020746706308472
43700 84.98944 5.55529 0.05556 99.99451 -0.00000020956044632925
43800 84.98711 5.55413 0.05554 99.99475 -0.00000020439561154717
43900 84.98895 5.55316 0.05553 99.99884 -0.00000022111161968041
44000 84.99122 5.55282 0.05553 100.00193 -0.00000021406873074170
44100 84.99527 5.55230 0.05552 100.00741 -0.00000020317751747712
44200 84.99136 5.55111 0.05551 100.00538 -0.00000020505184306074
44300 84.99758 5.55331 0.05553 100.00980 -0.00000018434532300660
44400 84.99410 5.55202 0.05551 100.00957 -0.00000017858808210036
44500 84.99838 5.55301 0.05552 100.01094 -0.00000018209040142381
44600 84.99803 5.55201 0.05551 100.01054 -0.00000018251213962373
44700 84.99637 5.55201 0.05551 100.01007 -0.00000017098246285485
44800 84.99632 5.55197 0.05551 100.01051 -0.00000018758123232487
44900 84.99515 5.55176 0.05551 100.00588 -0.00000019700488707031
45000 84.99528 5.55120 0.05551 100.00467 -0.00000021721877807579
45100 84.99395 5.54987 0.05550 100.00206 -0.00000024693177280710
45200 84.99674 5.55002 0.05550 100.00336 -0.00000026218625315266
45300 84.99337 5.54870 0.05549 100.00258 -0.00000026875932679360
45400 84.98979 5.54763 0.05547 100.00297 -0.00000026036306355337
45500 84.98910 5.54707 0.05547 100.00136 -0.00000026259160090802
45600 84.98228 5.54419 0.05544 99.99739 -0.00000022881317462975
45700 84.98023 5.54307 0.05543 99.99654 -0.00000023683480687708
45800 84.98049 5.54268 0.05543 99.99509 -0.00000024685604138597
45900 84.98018 5.54100 0.05541 99.99484 -0.00000025653559010408
46000 84.98148 5.53992 0.05540 99.99691 -0.00000028675934427014
46100 84.98075 5.53989 0.05540 99.99675 -0.00000030020935692932
46200 84.98182 5.54024 0.05540 99.99976 -0.00000029659683864480
46300 84.98121 5.53937 0.05540 99.99646 -0.00000031563040892024
46400 84.98341 5.53969 0.05540 99.99573 -0.00000032806166316846
46500 84.97955 5.53763 0.05538 99.99299 -0.00000032852277698225
46600 84.97809 5.53595 0.05536 99.99127 -0.00000030306357245991
46700 84.97933 5.53506 0.05536 99.99156 -0.00000030960373909039
46800 84.98212 5.53682 0.05537 99.99549 -0.00000029882032936968
46900 84.98465 5.53577 0.05536 99.99806 -0.00000030407054207870
47000 84.98780 5.53784 0.05538 100.00185 -0.00000030441548304339
47100 84.98818 5.53691 0.05537 100.00257 -0.00000031636988140349
47200 84.99267 5.53840 0.05538 100.00619 -0.00000030487150493030
47300 84.99520 5.53940 0.05539 100.00751 -0.00000032229945556850
47400 84.99429 5.53869 0.05538 100.00580 -0.00000032252214321460
47500 84.99361 5.53745 0.05537 100.00415 -0.00000032202432631578
47600 84.98969 5.53741 0.05537 100.00244 -0.00000032465795207770
47700 84.98702 5.53621 0.05536 100.00019 -0.00000032731533394781
47800 84.98603 5.53346 0.05534 99.99843 -0.00000032471054733918
47900 84.98458 5.53144 0.05532 99.99656 -0.00000030005577755787
48000 84.98777 5.53269 0.05533 99.99915 -0.00000030470010692341
48100 84.99018 5.53385 0.05534 100.00164 -0.00000030980044485318
48200 84.98678 5.53249 0.05533 99.99853 -0.00000032065482180599
48300 84.98725 5.53329 0.05533 99.99855 -0.00000031017740731443
48400 84.98947 5.53577 0.05536 100.00207 -0.00000029533673817639
48500 84.99215 5.53646 0.05536 100.00581 -0.00000030739153711323
48600 84.99593 5.53802 0.05538 100.00831 -0.00000031770859543201
48700 84.99791 5.53803 0.05538 100.00739 -0.00000032454014142758
48800 84.99646 5.53812 0.05538 100.00693 -0.00000032581086095718
48900 84.99683 5.53844 0.05538 100.00505 -0.00000030436521480937
49000 84.99599 5.53776 0.05537 100.00512 -0.00000031329221794607
49100 84.99397 5.53650 0.05536 100.00208 -0.00000032091107904364
49200 84.99167 5.53602 0.05536 100.00315 -0.00000033712791047691
49300 84.99283 5.53506 0.05535 100.00600 -0.00000033047776160089
49400 84.99310 5.53529 0.05535 100.00820 -0.00000033381577857483
49500 84.99292 5.53587 0.05535 100.00780 -0.00000033897851192677
49600 84.99180 5.53500 0.05535 100.00619 -0.00000035322731761767
49700 84.99213 5.53534 0.05535 100.00527 -0.00000035397284214866
49800 84.98912 5.53413 0.05534 100.00265 -0.00000035042976076483
49900 84.99009 5.53482 0.05535 100.00345 -0.00000033052498604746
50000 84.99029 5.53554 0.05535 100.00214 -0.00000031874635197937
50100 84.99138 5.53443 0.05534 100.00218 -0.00000033990045800181
50200 84.99219 5.53394 0.05534 100.00114 -0.00000034700259199383
50300 84.99243 5.53287 0.05533 100.00095 -0.00000033418273925889
50400 84.99473 5.53596 0.05536 100.00306 -0.00000033356078343871
50500 84.99693 5.53683 0.05537 100.00386 -0.00000032517994164039
50600 84.99688 5.53578 0.05535 100.00516 -0.00000033979008673413
50700 84.99790 5.53498 0.05534 100.00903 -0.00000034784378044606
50800 84.99926 5.53667 0.05536 100.00811 -0.00000033856746650684
50900 85.00039 5.53588 0.05535 100.00943 -0.00000033280976996508
51000 85.00219 5.53674 0.05536 100.01020 -0.00000033090782380896
51100 84.99830 5.53453 0.05534 100.00902 -0.00000032881124667483
51200 85.00094 5.53694 0.05536 100.01238 -0.00000033115512287907
51300 85.00343 5.53804 0.05537 100.01240 -0.00000031978117576159
51400 85.00930 5.53946 0.05539 100.01700 -0.00000033116897402152
51500 85.00947 5.53936 0.05538 100.01687 -0.00000032848940456631
51600 85.00806 5.53862 0.05538 100.01795 -0.00000034006534654907
51700 85.00445 5.53815 0.05537 100.01586 -0.00000033880992589275
51800 85.00299 5.53671 0.05536 100.01398 -0.00000035067685821843
51900 85.00446 5.53612 0.05535 100.01416 -0.00000034967700290878
52000 85.00238 5.53466 0.05534 100.01206 -0.00000035710021517588
52100 85.00282 5.53515 0.05534 100.01255 -0.00000035900047201665
52200 85.00162 5.53446 0.05534 100.01161 -0.00000036141438553017
52300 85.00016 5.53408 0.05534 100.01008 -0.00000035637236539543
52400 85.00273 5.53503 0.05534 100.01284 -0.00000034867825871032
52500 85.00482 5.53616 0.05535 100.01434 -0.00000034924581182594
52600 85.00650 5.53665 0.05536 100.01587 -0.00000032864794352605
52700 85.00890 5.53678 0.05536 100.01934 -0.00000030761578084793
52800 85.01308 5.53920 0.05538 100.02280 -0.00000030193341338247
52900 85.01241 5.53889 0.05538 100.02427 -0.00000029372596888066
53000 85.01039 5.53832 0.05537 100.02264 -0.00000028182201550209
53100 85.00724 5.53717 0.05536 100.02151 -0.00000031899319719031
53200 85.00394 5.53623 0.05535 100.01959 -0.00000028699414489353
53300 84.99864 5.53406 0.05533 100.01786 -0.00000025467025288606
53400 84.99820 5.53326 0.05532 100.01927 -0.00000025983658691331
53500 84.99788 5.53157 0.05530 100.02017 -0.00000025909388501333
53600 84.99502 5.53010 0.05529 100.02086 -0.00000023922284153599
53700 84.99315 5.52995 0.05529 100.02050 -0.00000023285621519875
53800 84.99133 5.53110 0.05530 100.01872 -0.00000022758126316802
53900 84.99035 5.53092 0.05530 100.01629 -0.00000020383433962934
54000 84.98974 5.52954 0.05529 100.01531 -0.00000020072085593625
54100 84.99035 5.53028 0.05529 100.01566 -0.00000019416082341905
54200 84.99076 5.53076 0.05530 100.01605 -0.00000020441558223894
54300 84.99244 5.52998 0.05529 100.01731 -0.00000020716411697208
54400 84.99124 5.53008 0.05529 100.01673 -0.00000020397611955048
54500 84.99459 5.53461 0.05534 100.01794 -0.00000024563301348479
54600 84.99365 5.53432 0.05533 100.01603 -0.00000023667475357314
54700 84.99421 5.53523 0.05534 100.01647 -0.00000024719842084409
54800 84.99274 5.53476 0.05534 100.01613 -0.00000025394246527810
54900 84.99363 5.53403 0.05533 100.01572 -0.00000028962425080437
55000 84.99696 5.53662 0.05536 100.01805 -0.00000027664160828778
55100 84.99528 5.53569 0.05535 100.01824 -0.00000028225686143912
55200 84.99809 5.53619 0.05535 100.01826 -0.00000026578793566046
55300 84.99953 5.53941 0.05538 100.01837 -0.00000028082647762773
55400 85.00153 5.54009 0.05539 100.02065 -0.00000029985688687617
55500 84.99994 5.53949 0.05538 100.01832 -0.00000025787850521652
55600 85.00243 5.54225 0.05541 100.01987 -0.00000026619457926813
55700 85.00714 5.54396 0.05543 100.02262 -0.00000026869232350180
55800 85.00726 5.54338 0.05542 100.02240 -0.00000026637153549558
55900 85.00672 5.54430 0.05543 100.02238 -0.00000021859720078510
56000 85.00657 5.54342 0.05542 100.02118 -0.00000021186229659520
56100 85.00454 5.54298 0.05542 100.01932 -0.00000019630391889791
56200 85.00924 5.54545 0.05544 100.02228 -0.00000020860707738990
56300 85.01322 5.54800 0.05547 100.02702 -0.00000018938095092125
56400 85.01335 5.54847 0.05547 100.02605 -0.00000019285460961527
56500 85.00853 5.54783 0.05547 100.02195 -0.00000019475028878446
56600 85.00617 5.54777 0.05547 100.01841 -0.00000018709477345169
56700 85.00854 5.54976 0.05549 100.01926 -0.00000019388185190650
56800 85.00664 5.54921 0.05548 100.01621 -0.00000018351608055411
56900 85.00704 5.54900 0.05548 100.01740 -0.00000019098314751886
57000 85.00808 5.54917 0.05548 100.01872 -0.00000020289598356982
57100 85.00934 5.55020 0.05549 100.02119 -0.00000019125690364774
57200 85.01227 5.54996 0.05549 100.02344 -0.00000019378305449180
57300 85.01095 5.55031 0.05549 100.02166 -0.00000017555733222707
57400 85.01000 5.55036 0.05549 100.02073 -0.00000016874031150138
57500 85.01101 5.55122 0.05550 100.02221 -0.00000021701179964140
57600 85.01545 5.55531 0.05554 100.02582 -0.00000019983745591645
57700 85.01314 5.55558 0.05554 100.02139 -0.00000021105880154693
57800 85.01383 5.55593 0.05555 100.02296 -0.00000019707617138209
57900 85.01676 5.55598 0.05555 100.02492 -0.00000021485439649638
58000 85.01587 5.55640 0.05555 100.02500 -0.00000025259200420180
58100 85.01931 5.55739 0.05556 100.02623 -0.00000024045899849057
58200 85.01983 5.55720 0.05556 100.02722 -0.00000023071088595117
58300 85.02001 5.55717 0.05556 100.02691 -0.00000022896058027300
58400 85.02278 5.55785 0.05556 100.02736 -0.00000022138109123659
58500 85.02022 5.55699 0.05556 100.02368 -0.00000022702996549384
58600 85.01669 5.55527 0.05554 100.02201 -0.00000020664351030319
58700 85.01397 5.55365 0.05552 100.02124 -0.00000020737410721949
58800 85.01585 5.55381 0.05553 100.02279 -0.00000018834091797260
58900 85.01591 5.55274 0.05552 100.02183 -0.00000019663688810567
59000 85.01602 5.55246 0.05551 100.02308 -0.00000019642531334796
59100 85.01393 5.55232 0.05551 100.02179 -0.00000021338899713896
59200 85.01544 5.55257 0.05551 100.02519 -0.00000025324428154505
59300 85.01652 5.55325 0.05552 100.02728 -0.00000023191146514279
59400 85.01610 5.55235 0.05551 100.02843 -0.00000020715265147686
59500 85.01583 5.55254 0.05551 100.02718 -0.00000021288447005219
59600 85.01443 5.55219 0.05551 100.02572 -0.00000020690997271089
59700 85.01059 5.55079 0.05550 100.02268 -0.00000021983477171972
59800 85.00879 5.54955 0.05548 100.02122 -0.00000019933407280348
59900 85.00872 5.55030 0.05549 100.01943 -0.00000019856770094862
60000 85.01281 5.55163 0.05550 100.02252 -0.00000019812917795292
60100 85.01457 5.55152 0.05550 100.02629 -0.00000019020126629243
60200 85.01562 5.55122 0.05550 100.02940 -0.00000020017273261175
60300 85.01497 5.55137 0.05550 100.03027 -0.00000020406538148166
60400 85.01399 5.55031 0.05549 100.02881 -0.00000019739529655283
60500 85.01265 5.55062 0.05549 100.02744 -0.00000019090649594489
60600 85.01439 5.55064 0.05549 100.02950 -0.00000017786267836328
60700 85.01251 5.54975 0.05548 100.02876 -0.00000016214534603876
60800 85.01376 5.55098 0.05549 100.03003 -0.00000016877063302445
60900 85.01641 5.55282 0.05551 100.03353 -0.00000019967839293145
61000 85.01328 5.55146 0.05550 100.02952 -0.00000020061070848953
61100 85.01314 5.55135 0.05550 100.03146 -0.00000019805197482015
61200 85.01377 5.55161 0.05550 100.03420 -0.00000018321370642838
61300 85.01357 5.55104 0.05549 100.03452 -0.00000019780038140738
61400 85.01680 5.55106 0.05549 100.03704 -0.00000018913181243363
61500 85.01483 5.55001 0.05548 100.03659 -0.00000020600584438313
61600 85.01870 5.55206 0.05550 100.03898 -0.00000021435116970281
61700 85.02202 5.55219 0.05550 100.04013 -0.00000020882290474589
61800 85.02102 5.55252 0.05550 100.03788 -0.00000020653494292588
61900 85.02251 5.55323 0.05551 100.04023 -0.00000020294213598504
62000 85.02024 5.55284 0.05551 100.03850 -0.00000020189026805895
62100 85.01891 5.55204 0.05550 100.03826 -0.00000023350911337872
62200 85.01901 5.55154 0.05549 100.03923 -0.00000024682647215002
62300 85.01789 5.55012 0.05548 100.03900 -0.00000024460053094089
62400 85.01611 5.54956 0.05547 100.03867 -0.00000025979603446302
62500 85.01978 5.55016 0.05548 100.03938 -0.00000026468306035810
62600 85.01831 5.54940 0.05547 100.03768 -0.00000025338589093593
62700 85.02379 5.55350 0.05551 100.04182 -0.00000025297224670595
62800 85.02481 5.55415 0.05552 100.04331 -0.00000025301369532826
62900 85.02355 5.55545 0.05553 100.04153 -0.00000023172131058402
63000 85.02842 5.55764 0.05555 100.04254 -0.00000024540170695531
63100 85.02798 5.55880 0.05556 100.04209 -0.00000027124116641630
63200 85.02591 5.55880 0.05557 100.03934 -0.00000027564697457905
63300 85.02873 5.56002 0.05558 100.04226 -0.00000028713119260004
63400 85.02840 5.55997 0.05558 100.04197 -0.00000029816026358986
63500 85.02741 5.56047 0.05558 100.04109 -0.00000032699461005592
63600 85.02737 5.56095 0.05559 100.04209 -0.00000033172025393213
63700 85.02698 5.56104 0.05559 100.04049 -0.00000031102413089457
63800 85.02658 5.56187 0.05560 100.04197 -0.00000032297943786119
63900 85.02311 5.56115 0.05559 100.04083 -0.00000033250271158636
64000 85.02136 5.56010 0.05558 100.03997 -0.00000035241895357530
64100 85.02191 5.56209 0.05560 100.03984 -0.00000037173608191665
64200 85.02441 5.56338 0.05561 100.04084 -0.00000034478062538312
64300 85.02480 5.56468 0.05562 100.04194 -0.00000034745957933069
64400 85.02823 5.56548 0.05563 100.04430 -0.00000036615952847541
64500 85.02741 5.56490 0.05562 100.04484 -0.00000035840330170345
64600 85.02981 5.56679 0.05564 100.04807 -0.00000032689030593502
64700 85.03145 5.56822 0.05566 100.04870 -0.00000035164966583068
64800 85.02904 5.56878 0.05566 100.04721 -0.00000034750334521050
64900 85.02684 5.56735 0.05565 100.04707 -0.00000033581294367480
65000 85.02658 5.56731 0.05565 100.04835 -0.00000032178565056995
65100 85.02550 5.56670 0.05564 100.04888 -0.00000033501801866009
65200 85.02542 5.56709 0.05564 100.04779 -0.00000033119943054771
65300 85.02592 5.56876 0.05566 100.04675 -0.00000033946216682068
65400 85.02644 5.56881 0.05566 100.04774 -0.00000031832107705299
65500 85.02542 5.56822 0.05566 100.04501 -0.00000033517739161937
65600 85.02565 5.56806 0.05566 100.04427 -0.00000034877656496235
65700 85.02580 5.56890 0.05566 100.04559 -0.00000037210332060056
65800 85.02609 5.56873 0.05566 100.04371 -0.00000034365966516958
65900 85.02352 5.56787 0.05565 100.04331 -0.00000032325472432149
66000 85.02072 5.56682 0.05564 100.04283 -0.00000035928046493439
66100 85.02242 5.56838 0.05566 100.04286 -0.00000038307169702989
66200 85.02347 5.56768 0.05565 100.04441 -0.00000036123100333185
66300 85.02707 5.57100 0.05568 100.04623 -0.00000037188575419123
66400 85.02527 5.56998 0.05567 100.04718 -0.00000035673480613951
66500 85.02314 5.56953 0.05567 100.04624 -0.00000035726913871770
66600 85.02131 5.57018 0.05568 100.04435 -0.00000035262919073631
66700 85.02126 5.57008 0.05568 100.04285 -0.00000034251047331679
66800 85.01824 5.56918 0.05567 100.03958 -0.00000034514881352976
66900 85.01679 5.56819 0.05566 100.03774 -0.00000035879894966229
67000 85.01601 5.56824 0.05566 100.03713 -0.00000037031746114025
67100 85.01541 5.56726 0.05565 100.03660 -0.00000036179284812476
67200 85.01474 5.56670 0.05565 100.03613 -0.00000036353234822428
67300 85.01427 5.56603 0.05564 100.03779 -0.00000035611899829036
67400 85.01599 5.56702 0.05565 100.03955 -0.00000038956223225028
67500 85.01480 5.56588 0.05564 100.03796 -0.00000040872927797864
67600 85.01728 5.56935 0.05567 100.04099 -0.00000039658002215504
67700 85.01673 5.57028 0.05568 100.04061 -0.00000041435055297967
67800 85.01674 5.57030 0.05568 100.03866 -0.00000045484606747692
67900 85.01948 5.57281 0.05571 100.03991 -0.00000044562197309972
68000 85.02102 5.57349 0.05571 100.03972 -0.00000044395824971843
68100 85.01998 5.57238 0.05570 100.03849 -0.00000045026859663011
68200 85.01890 5.57130 0.05569 100.03946 -0.00000044960134726324
68300 85.01817 5.57092 0.05569 100.03748 -0.00000043624620094107
68400 85.01562 5.56961 0.05568 100.03724 -0.00000040990206695568
68500 85.01641 5.56945 0.05567 100.03628 -0.00000043108461600383
68600 85.01484 5.56829 0.05566 100.03429 -0.00000042381753573295
68700 85.01608 5.56770 0.05566 100.03345 -0.00000042070803463190
68800 85.01528 5.56716 0.05565 100.03340 -0.00000040342058493792
68900 85.01499 5.56645 0.05565 100.03329 -0.00000040280079982580
69000 85.01742 5.56767 0.05566 100.03339 -0.00000040358561648191
69100 85.01671 5.56764 0.05566 100.03301 -0.00000039142202368225
69200 85.01446 5.56663 0.05565 100.03077 -0.00000040713647742052
69300 85.01469 5.56652 0.05565 100.03130 -0.00000039976118504370
69400 85.01901 5.56888 0.05567 100.03254 -0.00000039270406748670
69500 85.01893 5.56826 0.05566 100.03206 -0.00000041784151605384
69600 85.02050 5.56979 0.05568 100.03098 -0.00000042955035617354
69700 85.02121 5.56957 0.05568 100.03098 -0.00000041403088868464
69800 85.01979 5.57007 0.05568 100.02893 -0.00000041592574451244
69900 85.01992 5.57021 0.05569 100.02864 -0.00000043702867813522
70000 85.01950 5.56963 0.05568 100.02616 -0.00000041663666738856
70100 85.02020 5.57032 0.05569 100.02662 -0.00000042363747354557
70200 85.02133 5.56977 0.05568 100.02845 -0.00000040545038704209
70300 85.01978 5.56962 0.05568 100.02653 -0.00000042857018733855
70400 85.02244 5.57189 0.05570 100.02739 -0.00000042569612634935
70500 85.02414 5.57220 0.05571 100.02799 -0.00000043807583338662
70600 85.02761 5.57406 0.05572 100.02982 -0.00000043261472892908
70700 85.02766 5.57321 0.05572 100.02999 -0.00000040885714280847
70800 85.02924 5.57369 0.05572 100.03145 -0.00000042896522600699
70900 85.03190 5.57510 0.05573 100.03449 -0.00000042991127102709
71000 85.03146 5.57461 0.05573 100.03456 -0.00000040510923327020
71100 85.03151 5.57488 0.05573 100.03556 -0.00000040219890440341
71200 85.03162 5.57445 0.05572 100.03584 -0.00000041933940053696
71300 85.02894 5.57340 0.05571 100.03422 -0.00000041024698482772
71400 85.03121 5.57395 0.05572 100.03587 -0.00000040083011221270
71500 85.02874 5.57334 0.05571 100.03594 -0.00000043236258751023
71600 85.03221 5.57648 0.05574 100.03735 -0.00000042963213786607
71700 85.03215 5.57681 0.05575 100.03816 -0.00000042547317224972
71800 85.03195 5.57779 0.05576 100.03818 -0.00000042815418410669
71900 85.03195 5.57778 0.05576 100.03757 -0.00000045458051722846
72000 85.03187 5.57791 0.05576 100.03771 -0.00000043363706137001
72100 85.03128 5.57710 0.05575 100.03664 -0.00000041858132870942
72200 85.02925 5.57581 0.05574 100.03528 -0.00000043721852627243
72300 85.02906 5.57557 0.05574 100.03575 -0.00000044582299274509
72400 85.02736 5.57477 0.05573 100.03391 -0.00000044691182754519
72500 85.02497 5.57359 0.05572 100.03288 -0.00000045124443914801
72600 85.02411 5.57359 0.05572 100.03262 -0.00000044033434498658
72700 85.02407 5.57439 0.05572 100.03552 -0.00000042635378250111
72800 85.02447 5.57409 0.05572 100.03508 -0.00000042620843210273
72900 85.02510 5.57421 0.05572 100.03440 -0.00000041440434284112
73000 85.02559 5.57372 0.05572 100.03544 -0.00000039725205880359
73100 85.02356 5.57294 0.05571 100.03334 -0.00000039024303877255
73200 85.02336 5.57249 0.05571 100.03272 -0.00000036783532308959
73300 85.02365 5.57233 0.05570 100.03413 -0.00000038981991501430
73400 85.02628 5.57265 0.05571 100.03696 -0.00000039919673522348
73500 85.02613 5.57172 0.05570 100.03620 -0.00000039373982652080
73600 85.02682 5.57270 0.05571 100.03683 -0.00000039222135583827
73700 85.02598 5.57243 0.05570 100.03590 -0.00000039353846936763
73800 85.02439 5.57150 0.05570 100.03509 -0.00000040916320998008
73900 85.02214 5.57063 0.05569 100.03326 -0.00000041170114961631
74000 85.01889 5.56969 0.05568 100.03278 -0.00000040464842498977
74100 85.01917 5.57145 0.05570 100.03300 -0.00000042299237978938
74200 85.01986 5.57189 0.05570 100.03311 -0.00000040201453366251
74300 85.01960 5.57196 0.05570 100.03092 -0.00000040184822136524
74400 85.02102 5.57235 0.05571 100.03281 -0.00000043812176997449
74500 85.01893 5.57081 0.05569 100.03062 -0.00000041532611838591
74600 85.02233 5.57216 0.05570 100.03304 -0.00000038435165627959
74700 85.02223 5.57167 0.05570 100.03293 -0.00000036106559697657
74800 85.01905 5.57039 0.05569 100.03111 -0.00000037505418326589
74900 85.01724 5.56989 0.05568 100.02999 -0.00000032685796202969
75000 85.01902 5.57104 0.05569 100.03283 -0.00000032223602808301
75100 85.01727 5.57018 0.05568 100.03124 -0.00000026633897398654
75200 85.01686 5.57021 0.05569 100.03064 -0.00000023790376335597
75300 85.01830 5.57077 0.05569 100.03033 -0.00000022030135760076
75400 85.01932 5.57162 0.05570 100.03207 -0.00000022236473817827
75500 85.01874 5.57156 0.05570 100.03144 -0.00000022944512334533
75600 85.01993 5.57236 0.05571 100.03004 -0.00000022484279238455
75700 85.01930 5.57266 0.05571 100.03066 -0.00000022622943252060
75800 85.02035 5.57336 0.05572 100.03239 -0.00000021189418220047
75900 85.02001 5.57273 0.05571 100.03273 -0.00000024960430611287
76000 85.02292 5.57304 0.05571 100.03605 -0.00000022260570098354
76100 85.02097 5.57160 0.05570 100.03347 -0.00000023588283060150
76200 85.01989 5.57158 0.05570 100.03399 -0.00000021328625621209
76300 85.02021 5.57193 0.05570 100.03439 -0.00000016915134537498
76400 85.02145 5.57223 0.05570 100.03436 -0.00000014098577683086
76500 85.01983 5.57151 0.05570 100.03391 -0.00000014112113611020
76600 85.01700 5.57062 0.05569 100.03219 -0.00000011354918871831
76700 85.01662 5.57080 0.05569 100.03192 -0.00000009321186222877
76800 85.01545 5.57029 0.05569 100.03113 -0.00000004921724539031
76900 85.01810 5.57326 0.05572 100.03096 -0.00000004061437941516
77000 85.01583 5.57295 0.05571 100.02994 -0.00000006371839766928
77100 85.01404 5.57193 0.05570 100.02916 -0.00000008430436881923
77200 85.01229 5.57142 0.05570 100.02891 -0.00000007965827908407
77300 85.01172 5.57129 0.05570 100.02820 -0.00000007880194363707
77400 85.01316 5.57162 0.05570 100.02881 -0.00000008469424184199
77500 85.01076 5.57066 0.05569 100.02541 -0.00000006824951537254
77600 85.01046 5.57143 0.05570 100.02452 -0.00000009378788679015
77700 85.01007 5.57112 0.05570 100.02561 -0.00000011860992277235
77800 85.00894 5.57019 0.05569 100.02575 -0.00000011631195118156
77900 85.01051 5.57059 0.05569 100.02786 -0.00000012523696213407
78000 85.01328 5.57173 0.05570 100.02896 -0.00000012656506953590
78100 85.01222 5.57115 0.05570 100.02800 -0.00000009305110815205
78200 85.00800 5.56988 0.05568 100.02680 -0.00000009268209133495
78300 85.00733 5.56904 0.05568 100.02631 -0.00000004279584420175
78400 85.00858 5.57214 0.05571 100.02477 -0.00000001332515786601
78500 85.01181 5.57222 0.05571 100.02538 -0.00000006972160715435
78600 85.01239 5.57134 0.05570 100.02434 -0.00000009551166790800
78700 85.01242 5.57175 0.05570 100.02389 -0.00000011219062834300
78800 85.01403 5.57423 0.05573 100.02600 -0.00000009766665964861
78900 85.01458 5.57463 0.05573 100.02553 -0.00000005526512314447
79000 85.01480 5.57355 0.05572 100.02522 -0.00000005451069018392
79100 85.01330 5.57246 0.05571 100.02314 -0.00000003923599756206
79200 85.01360 5.57269 0.05571 100.02347 -0.00000006462893242798
79300 85.01393 5.57355 0.05572 100.02230 -0.00000003726746644617
79400 85.01592 5.57426 0.05573 100.02305 -0.00000000531472199583
79500 85.01738 5.57432 0.05573 100.02247 0.00000004610140980077
79600 85.01738 5.57390 0.05573 100.02211 0.00000004977016132557
79700 85.01677 5.57368 0.05572 100.02130 0.00000007507581489818
79800 85.01496 5.57244 0.05571 100.01916 0.00000004037954415281
79900 85.01360 5.57151 0.05570 100.02003 -0.00000001047696152057
80000 85.01285 5.57119 0.05570 100.01937 -0.00000000942198230547
80100 85.01291 5.57139 0.05570 100.01785 -0.00000001844324160061
80200 85.01328 5.57180 0.05571 100.01738 -0.00000001720671161110
80300 85.01380 5.57241 0.05571 100.01704 -0.00000001722392362069
80400 85.01371 5.57198 0.05571 100.01709 -0.00000002968868884068
80500 85.01571 5.57288 0.05572 100.01678 -0.00000004127157904321
80600 85.01432 5.57197 0.05571 100.01632 -0.00000004996787961176
80700 85.01477 5.57252 0.05572 100.01667 0.00000001106855851418
80800 85.01282 5.57220 0.05571 100.01462 0.00000001965796148085
80900 85.01449 5.57238 0.05571 100.01580 -0.00000000178641723636
81000 85.01445 5.57185 0.05571 100.01543 -0.00000001975697028200
81100 85.01462 5.57300 0.05572 100.01639 -0.00000000811633071862
81200 85.01315 5.57148 0.05571 100.01565 -0.00000003542384696686
81300 85.01222 5.57045 0.05570 100.01369 -0.00000006208742586722
81400 85.01180 5.56930 0.05568 100.01450 -0.00000007676579194538
81500 85.01142 5.57047 0.05570 100.01507 -0.00000007628583276187
81600 85.01302 5.57035 0.05569 100.01665 -0.00000001062837728938
81700 85.01234 5.56986 0.05569 100.01605 -0.00000001192749454759
81800 85.01174 5.57014 0.05569 100.01639 -0.00000000301076497067
81900 85.01376 5.57192 0.05571 100.01712 -0.00000002718168179427
82000 85.01308 5.57112 0.05570 100.01793 -0.00000001840751728821
82100 85.01212 5.57052 0.05570 100.01730 -0.00000001937863824963
82200 85.01070 5.56945 0.05569 100.01622 -0.00000007890932440802
82300 85.01085 5.56959 0.05569 100.01774 -0.00000012692010198379
82400 85.01084 5.56966 0.05569 100.01586 -0.00000010445531106740
82500 85.00997 5.56910 0.05568 100.01497 -0.00000010264734662258
82600 85.01170 5.57077 0.05570 100.01619 -0.00000009070434625613
82700 85.01188 5.56994 0.05569 100.01570 -0.00000006685780018501
82800 85.01172 5.57038 0.05569 100.01662 -0.00000005960791327198
82900 85.00939 5.56977 0.05569 100.01571 -0.00000002745308336216
83000 85.00960 5.56984 0.05569 100.01472 -0.00000001032629537434
83100 85.01015 5.56964 0.05569 100.01424 -0.00000002225552275803
83200 85.00958 5.56865 0.05568 100.01258 -0.00000002007089072720
83300 85.00985 5.56806 0.05567 100.01216 0.00000000378060160955
83400 85.00946 5.56737 0.05567 100.01200 -0.00000001628159562728
83500 85.00890 5.56640 0.05566 100.01194 -0.00000002138767563054
83600 85.00889 5.56627 0.05566 100.01144 -0.00000001115890224668
83700 85.00752 5.56586 0.05565 100.01054 0.00000001363702839541
83800 85.00955 5.56629 0.05566 100.01158 0.00000001127289372960
83900 85.00765 5.56595 0.05565 100.01098 0.00000004906353456846
84000 85.00582 5.56483 0.05564 100.00925 0.00000004574456724526
84100 85.00661 5.56477 0.05564 100.01007 0.00000006701502108797
84200 85.00756 5.56597 0.05565 100.00961 0.00000008918075522502
84300 85.00676 5.56545 0.05565 100.00968 0.00000007361306941789
84400 85.00787 5.56593 0.05565 100.01092 0.00000007803799295658
84500 85.00522 5.56452 0.05564 100.01045 0.00000007584887651291
84600 85.00574 5.56477 0.05564 100.01074 0.00000006904659244356
84700 85.00446 5.56378 0.05563 100.00953 0.00000012479510314023
84800 85.00488 5.56414 0.05564 100.01041 0.00000014529141001418
84900 85.00421 5.56391 0.05563 100.01020 0.00000014208907384017
85000 85.00203 5.56325 0.05563 100.00880 0.00000012719260311655
85100 85.00141 5.56241 0.05562 100.00872 0.00000012180251118821
85200 84.99903 5.56176 0.05561 100.00751 0.00000014208367282720
85300 84.99789 5.56204 0.05562 100.00621 0.00000015078726711693
85400 84.99897 5.56237 0.05562 100.00573 0.00000014626365807402
85500 84.99955 5.56250 0.05562 100.00720 0.00000015970658573394
85600 84.99987 5.56304 0.05563 100.00701 0.00000020210624018802
85700 85.00282 5.56402 0.05564 100.00930 0.00000013662789211111
85800 85.00142 5.56372 0.05563 100.00770 0.00000012712966945827
85900 85.00047 5.56359 0.05563 100.00772 0.00000012472718058376
86000 84.99962 5.56332 0.05563 100.00526 0.00000009669564082770
86100 84.99763 5.56247 0.05562 100.00260 0.00000012261898962862
86200 85.00003 5.56399 0.05564 100.00355 0.00000016165215122044
86300 85.00039 5.56481 0.05565 100.00357 0.00000020329234295957
86400 85.00037 5.56461 0.05564 100.00413 0.00000020056882199526
86500 85.00125 5.56460 0.05564 100.00489 0.00000017397179519207
86600 85.00139 5.56484 0.05565 100.00433 0.00000016435657901326
86700 84.99934 5.56445 0.05564 100.00377 0.00000018654574240884
86800 85.00021 5.56430 0.05564 100.00521 0.00000019655826388743
86900 84.99960 5.56380 0.05563 100.00550 0.00000015840027067782
87000 84.99940 5.56374 0.05563 100.00539 0.00000014835927153456
87100 84.99886 5.56339 0.05563 100.00549 0.00000014266338954627
87200 84.99951 5.56370 0.05563 100.00529 0.00000016677762726403
87300 84.99818 5.56302 0.05563 100.00490 0.00000018699585524473
87400 84.99816 5.56250 0.05562 100.00461 0.00000021140569472777
87500 84.99853 5.56269 0.05563 100.00322 0.00000019414792085115
87600 85.00018 5.56319 0.05563 100.00389 0.00000017804277252509
87700 84.99989 5.56299 0.05563 100.00422 0.00000020407701573077
87800 84.99929 5.56216 0.05562 100.00339 0.00000021808088757069
87900 85.00023 5.56165 0.05561 100.00291 0.00000019885232838135
88000 85.00085 5.56100 0.05561 100.00226 0.00000015678943388053
88100 85.00100 5.56098 0.05561 100.00216 0.00000017250039796579
88200 85.00084 5.56165 0.05562 100.00190 0.00000017562433640705
88300 84.99836 5.56031 0.05560 100.00016 0.00000017563169318890
88400 84.99818 5.55950 0.05559 100.00079 0.00000019889613067647
88500 84.99854 5.55981 0.05560 100.00153 0.00000022760482210060
88600 84.99894 5.55997 0.05560 100.00084 0.00000022214632178219
88700 84.99958 5.56098 0.05561 100.00142 0.00000022421506429282
88800 84.99848 5.56043 0.05560 100.00140 0.00000023100319168634
88900 84.99899 5.55985 0.05560 100.00182 0.00000020274950163213
89000 84.99689 5.55901 0.05559 100.00036 0.00000024207692828071
89100 84.99871 5.56028 0.05560 100.00089 0.00000024147867527802
89200 85.00025 5.56148 0.05561 100.00114 0.00000029018850877804
89300 85.00174 5.56183 0.05562 100.00228 0.00000031237932329731
89400 85.00250 5.56225 0.05562 100.00338 0.00000034263473303042
89500 85.00527 5.56253 0.05562 100.00321 0.00000032838827657145
89600 85.00554 5.56239 0.05562 100.00434 0.00000032826823215260
89700 85.00507 5.56244 0.05562 100.00406 0.00000034974729867798
89800 85.00665 5.56290 0.05563 100.00444 0.00000036134886016725
89900 85.00705 5.56342 0.05563 100.00591 0.00000035179077961800
90000 85.00705 5.56325 0.05563 100.00814 0.00000033771392526916
90100 85.00559 5.56252 0.05562 100.00685 0.00000035737891934673
90200 85.00488 5.56204 0.05562 100.00604 0.00000032808987260324
90300 85.00394 5.56132 0.05561 100.00526 0.00000033143849087480
90400 85.00306 5.56096 0.05561 100.00558 0.00000032585714127009
90500 85.00056 5.56051 0.05560 100.00415 0.00000033157976186970
90600 85.00131 5.56003 0.05560 100.00536 0.00000035681391619136
90700 85.00078 5.55932 0.05559 100.00585 0.00000032601934574217
90800 85.00116 5.55981 0.05559 100.00566 0.00000036630219479861
90900 85.00064 5.55950 0.05559 100.00492 0.00000039448906896666
91000 85.00221 5.56018 0.05560 100.00566 0.00000039047175004470
91100 85.00007 5.55934 0.05559 100.00413 0.00000038176915140298
91200 84.99830 5.55916 0.05559 100.00283 0.00000038214901465494
91300 84.99738 5.55866 0.05559 100.00200 0.00000039043111588200
91400 84.99777 5.55843 0.05558 100.00218 0.00000040840148507471
91500 84.99778 5.55870 0.05559 100.00250 0.00000044005927701818
91600 84.99803 5.55818 0.05558 100.00349 0.00000042693338464517
91700 84.99896 5.55854 0.05558 100.00506 0.00000039795547923660
91800 84.99845 5.55817 0.05558 100.00407 0.00000038761534604248
91900 84.99773 5.55730 0.05557 100.00292 0.00000036190862839902
92000 84.99764 5.55668 0.05556 100.00330 0.00000031473777273305
92100 84.99967 5.55649 0.05556 100.00490 0.00000033059055049023
92200 85.00245 5.55930 0.05559 100.00511 0.00000030318027466336
92300 85.00379 5.55926 0.05559 100.00491 0.00000028149455566506
92400 85.00325 5.55877 0.05558 100.00530 0.00000025348866028452
92500 85.00301 5.55860 0.05558 100.00491 0.00000023451227448845
92600 85.00447 5.55898 0.05559 100.00528 0.00000022027660229185
92700 85.00489 5.55899 0.05559 100.00534 0.00000019103204973447
92800 85.00609 5.55971 0.05559 100.00617 0.00000014968347361588
92900 85.00838 5.56050 0.05560 100.00805 0.00000015922394336343
93000 85.00852 5.56028 0.05560 100.00872 0.00000012583045716497
93100 85.00738 5.55971 0.05559 100.00755 0.00000009624557240073
93200 85.00770 5.55984 0.05559 100.00789 0.00000011061293569981
93300 85.01026 5.56065 0.05560 100.00990 0.00000009635975128930
93400 85.01022 5.56131 0.05561 100.00907 0.00000010600518240977
93500 85.00839 5.56083 0.05560 100.00970 0.00000008786106686642
93600 85.00924 5.56125 0.05561 100.01032 0.00000011256831555784
93700 85.00806 5.56031 0.05560 100.00980 0.00000009582363080796
93800 85.00984 5.56016 0.05560 100.01022 0.00000012013036165825
93900 85.01154 5.55979 0.05559 100.01141 0.00000006161781751501
94000 85.01254 5.56027 0.05560 100.01174 0.00000008586465671812
94100 85.01215 5.56110 0.05560 100.01154 0.00000011005081113069
94200 85.01383 5.56167 0.05561 100.01194 0.00000011723650938933
94300 85.01316 5.56156 0.05561 100.01166 0.00000010446108955620
94400 85.01128 5.56122 0.05561 100.01079 0.00000011131535160303
94500 85.01283 5.56219 0.05562 100.01179 0.00000010160059016329
94600 85.01266 5.56188 0.05561 100.01265 0.00000009276881929310
94700 85.01196 5.56103 0.05560 100.01257 0.00000012704239349404
94800 85.01129 5.56124 0.05561 100.01276 0.00000012693157813715
94900 85.01168 5.56201 0.05561 100.01180 0.00000015879418580056
95000 85.01229 5.56318 0.05562 100.01237 0.00000018804956880558
95100 85.01147 5.56274 0.05562 100.01004 0.00000018433603532486
95200 85.01014 5.56248 0.05562 100.00924 0.00000016792206292138
95300 85.01102 5.56275 0.05562 100.01042 0.00000014932099468012
95400 85.01026 5.56190 0.05561 100.00851 0.00000017931824825013
95500 85.00899 5.56149 0.05561 100.00808 0.00000022080335515540
95600 85.00957 5.56133 0.05561 100.00839 0.00000026174771328158
95700 85.00750 5.56038 0.05560 100.00768 0.00000023491506961903
95800 85.00828 5.56029 0.05560 100.00942 0.00000021395616123243
95900 85.00938 5.56157 0.05561 100.00965 0.00000022154129908358
96000 85.00728 5.56120 0.05561 100.00672 0.00000020491389207677
96100 85.00738 5.56095 0.05561 100.00725 0.00000019157232600264
96200 85.00591 5.56017 0.05560 100.00581 0.00000021451339726752
96300 85.00529 5.55927 0.05559 100.00563 0.00000022489844475615
96400 85.00245 5.55876 0.05559 100.00363 0.00000028187139289315
96500 85.00028 5.55767 0.05558 100.00225 0.00000028016531139485
96600 85.00157 5.55811 0.05558 100.00232 0.00000029022903191844
96700 85.00079 5.55822 0.05558 100.00285 0.00000033873733684686
96800 85.00008 5.55826 0.05558 100.00255 0.00000036317827234456
96900 85.00012 5.55862 0.05558 100.00381 0.00000033448287339866
97000 85.00233 5.55964 0.05559 100.00620 0.00000036998864771931
97100 85.00365 5.56010 0.05560 100.00652 0.00000037902329896866
97200 85.00353 5.56023 0.05560 100.00742 0.00000039961738451666
97300 85.00448 5.56008 0.05560 100.00749 0.00000040648406685051
97400 85.00509 5.56140 0.05561 100.00840 0.00000042689293611176
97500 85.00474 5.56128 0.05561 100.00826 0.00000040225263120419
97600 85.00517 5.56050 0.05560 100.00891 0.00000039045586763820
97700 85.00368 5.55942 0.05559 100.00884 0.00000040161494130331
97800 85.00403 5.56039 0.05560 100.01006 0.00000038163409676883
97900 85.00336 5.55933 0.05559 100.00915 0.00000032354026391346
98000 85.00175 5.55869 0.05558 100.00743 0.00000034807819826455
98100 85.00150 5.55922 0.05559 100.00647 0.00000034445645358261
98200 85.00082 5.55946 0.05559 100.00656 0.00000033273544897128
98300 85.00002 5.55907 0.05559 100.00685 0.00000031892753060703
98400 85.00109 5.55919 0.05559 100.00747 0.00000033274164401575
98500 85.00184 5.55869 0.05558 100.00642 0.00000033310760816363
98600 85.00365 5.55962 0.05559 100.00868 0.00000036622945032150
98700 85.00427 5.55989 0.05559 100.00894 0.00000036856308316402
98800 85.00545 5.56009 0.05559 100.01151 0.00000037886844506119
98900 85.00408 5.55918 0.05559 100.01196 0.00000041736625533417
99000 85.00309 5.55901 0.05558 100.01188 0.00000043938020066747
99100 85.00522 5.56040 0.05560 100.01294 0.00000044936739662660
99200 85.00399 5.55958 0.05559 100.01275 0.00000040999427763921
99300 85.00499 5.55950 0.05559 100.01376 0.00000044593058845521
99400 85.00512 5.55906 0.05558 100.01438 0.00000043969589569315
99500 85.00376 5.55847 0.05558 100.01393 0.00000044121745457204
99600 85.00320 5.55824 0.05557 100.01405 0.00000043878332256497
99700 85.00261 5.55792 0.05557 100.01401 0.00000044600008752838
99800 85.00173 5.55751 0.05557 100.01398 0.00000045807102289075
99900 85.00278 5.55832 0.05557 100.01506 0.00000046859117297515
100000 85.00109 5.55733 0.05557 100.01484 0.00000047361521460232
